Time/s,A/V
0,-40.0996
0.000156,-43.5151
0.000312,-46.7651
0.000468,-50.0098
0.000624,-53.1584
0.00078,-56.1683
0.000936,-59.1248
0.001092,-61.8945
0.001248,-64.4828
0.001404,-67.0337
0.00156,-69.5366
0.001716,-71.9648
0.001872,-74.2542
0.002028,-76.3622
0.002184,-78.3314
0.00234,-80.1138
0.002496,-81.6241
0.002652,-82.9316
0.002808,-83.9989
0.002964,-84.7781
0.00312,-85.2263
0.003276,-85.4025
0.003432,-85.3758
0.003588,-85.0876
0.003744,-84.6073
0.0039,-83.9029
0.004056,-82.9529
0.004212,-81.7682
0.004368,-80.2312
0.004524,-78.5449
0.00468,-76.8745
0.004836,-75.1401
0.004992,-73.2989
0.005148,-71.3457
0.005304,-69.3071
0.00546,-67.1724
0.005616,-64.9364
0.005772,-62.4869
0.005928,-59.8292
0.006084,-57.1129
0.00624,-54.1937
0.006396,-51.0931
0.006552,-47.8431
0.006708,-44.5077
0.006864,-41.0282
0.00702,-37.3939
0.007176,-33.4768
0.007332,-29.4583
0.007488,-25.3064
0.007644,-21.0051
0.0078,-16.645
0.007956,-12.301
0.008112,-7.9516
0.008268,-3.6396
0.008424,0.6724
0.00858,4.9844
0.008736,9.179
0.008892,13.4057
0.009048,17.5683
0.009204,21.6295
0.00936,25.5999
0.009516,29.405
0.009672,33.0499
0.009828,36.5828
0.009984,40.0356
0.01014,43.3977
0.010296,46.6103
0.010452,49.823
0.010608,52.9396
0.010764,55.9335
0.01092,58.8793
0.011076,61.6757
0.011232,64.2853
0.011388,66.8576
0.011544,69.3818
0.0117,71.8314
0.011856,74.1421
0.012012,76.2821
0.012168,78.294
0.012324,80.0872
0.01248,81.5707
0.012636,82.8622
0.012792,83.9295
0.012948,84.6927
0.013104,85.141
0.01326,85.2957
0.013416,85.2637
0.013572,85.0022
0.013728,84.5166
0.013884,83.8121
0.01404,82.8675
0.014196,81.7415
0.014352,80.2953
0.014508,78.6249
0.014664,76.9812
0.01482,75.2842
0.014976,73.4697
0.015132,71.4898
0.015288,69.4299
0.015444,67.2899
0.0156,65.0485
0.015756,62.5402
0.015912,59.8185
0.016068,57.0595
0.016224,54.087
0.01638,50.949
0.016536,47.6723
0.016692,44.3316
0.016848,40.8841
0.017004,37.2712
0.01716,33.4341
0.017316,29.469
0.017472,25.3758
0.017628,21.1385
0.017784,16.8745
0.01794,12.5998
0.018096,8.3252
0.018252,4.0505
0.018408,-0.2188
0.018564,-4.5041
0.01872,-8.7254
0.018876,-12.9414
0.019032,-17.0986
0.019188,-21.1812
0.019344,-25.173
0.0195,-29.0261
0.019656,-32.735
0.019812,-36.3213
0.019968,-39.8221
0.020124,-43.2322
0.02028,-46.5036
0.020436,-49.7163
0.020592,-52.8862
0.020748,-55.9068
0.020904,-58.8793
0.02106,-61.665
0.021216,-64.2533
0.021372,-66.8202
0.021528,-69.3498
0.021684,-71.7993
0.02184,-74.1048
0.021996,-76.2288
0.022152,-78.214
0.022308,-80.0231
0.022464,-81.5654
0.02262,-82.8889
0.022776,-83.9829
0.022932,-84.7781
0.023088,-85.237
0.023244,-85.4291
0.0234,-85.4078
0.023556,-85.1623
0.023712,-84.6767
0.023868,-83.9936
0.024024,-83.0597
0.02418,-81.8856
0.024336,-80.3753
0.024492,-78.6889
0.024648,-77.0132
0.024804,-75.2895
0.02496,-73.4697
0.025116,-71.5165
0.025272,-69.4832
0.025428,-67.3539
0.025584,-65.1072
0.02574,-62.6843
0.025896,-60.0213
0.026052,-57.3157
0.026208,-54.4072
0.026364,-51.3066
0.02652,-48.0726
0.026676,-44.7265
0.026832,-41.2577
0.026988,-37.6234
0.027144,-33.7437
0.0273,-29.7518
0.027456,-25.5999
0.027612,-21.2932
0.027768,-16.9545
0.027924,-12.6052
0.02808,-8.2611
0.028236,-3.9491
0.028392,0.3629
0.028548,4.6749
0.028704,8.8695
0.02886,13.0961
0.029016,17.2641
0.029172,21.3359
0.029328,25.2904
0.029484,29.1061
0.02964,32.7564
0.029796,36.3213
0.029952,39.7847
0.030108,43.1468
0.030264,46.3595
0.03042,49.5615
0.030576,52.6728
0.030732,55.6826
0.030888,58.6285
0.031044,61.4516
0.0312,64.0772
0.031356,66.6548
0.031512,69.2004
0.031668,71.6606
0.031824,73.982
0.03198,76.1167
0.032136,78.1499
0.032292,79.9591
0.032448,81.4854
0.032604,82.7928
0.03276,83.8815
0.032916,84.6553
0.033072,85.1196
0.033228,85.3011
0.033384,85.2744
0.03354,85.0022
0.033696,84.5326
0.033852,83.8442
0.034008,82.9476
0.034164,81.8216
0.03432,80.386
0.034476,78.721
0.034632,77.0826
0.034788,75.3962
0.034944,73.5924
0.0351,71.6232
0.035256,69.5793
0.035412,67.4553
0.035568,65.2192
0.035724,62.7484
0.03588,60.016
0.036036,57.2623
0.036192,54.3111
0.036348,51.1892
0.036504,47.9285
0.03666,44.5877
0.036816,41.1669
0.036972,37.5754
0.037128,33.7276
0.037284,29.7732
0.03744,25.696
0.037596,21.4747
0.037752,17.1947
0.037908,12.92
0.038064,8.6454
0.03822,4.3761
0.038376,0.1281
0.038532,-4.1733
0.038688,-8.3892
0.038844,-12.6105
0.039,-16.7518
0.039156,-20.845
0.039312,-24.8581
0.039468,-28.7325
0.039624,-32.4362
0.03978,-36.0117
0.039936,-39.5233
0.040092,-42.944
0.040248,-46.1887
0.040404,-49.4227
0.04056,-52.5714
0.040716,-55.6133
0.040872,-58.5911
0.041028,-61.4035
0.041184,-64.0078
0.04134,-66.5854
0.041496,-69.1257
0.041652,-71.5699
0.041808,-73.902
0.041964,-76.0366
0.04212,-78.0272
0.042276,-79.8737
0.042432,-81.4533
0.042588,-82.7822
0.042744,-83.9082
0.0429,-84.7247
0.043056,-85.205
0.043212,-85.3971
0.043368,-85.3971
0.043524,-85.173
0.04368,-84.7087
0.043836,-84.0256
0.043992,-83.1077
0.044148,-81.971
0.044304,-80.5034
0.04446,-78.817
0.044616,-77.1467
0.044772,-75.4283
0.044928,-73.6085
0.045084,-71.6766
0.04524,-69.6487
0.045396,-67.53
0.045552,-65.2993
0.045708,-62.9085
0.045864,-60.2775
0.04602,-57.5665
0.046176,-54.6687
0.046332,-51.5948
0.046488,-48.3661
0.046644,-45.0414
0.0468,-41.5725
0.046956,-37.9863
0.047112,-34.1226
0.047268,-30.1307
0.047424,-26.0002
0.04758,-21.6988
0.047736,-17.3548
0.047892,-13.0054
0.048048,-8.6614
0.048204,-4.3174
0.04836,-0.0213
0.048516,4.2693
0.048672,8.4746
0.048828,12.7066
0.048984,16.8958
0.04914,20.9944
0.049296,24.9649
0.049452,28.8073
0.049608,32.4842
0.049764,36.0331
0.04992,39.4859
0.050076,42.8533
0.050232,46.114
0.050388,49.2893
0.050544,52.438
0.0507,55.4318
0.050856,58.3883
0.051012,61.2274
0.051168,63.8584
0.051324,66.436
0.05148,68.9816
0.051636,71.4471
0.051792,73.7899
0.051948,75.9299
0.052104,77.9578
0.05226,79.7883
0.052416,81.368
0.052572,82.6914
0.052728,83.8068
0.052884,84.618
0.05304,85.1089
0.053196,85.3064
0.053352,85.285
0.053508,85.0502
0.053664,84.5966
0.05382,83.9402
0.053976,83.0437
0.054132,81.939
0.054288,80.5301
0.054444,78.8757
0.0546,77.2267
0.054756,75.5403
0.054912,73.7365
0.055068,71.7833
0.055224,69.7501
0.05538,67.6367
0.055536,65.4114
0.055692,62.9565
0.055848,60.2561
0.056004,57.5131
0.05616,54.5833
0.056316,51.4934
0.056472,48.2594
0.056628,44.9453
0.056784,41.5192
0.05694,37.9276
0.057096,34.1012
0.057252,30.1574
0.057408,26.1016
0.057564,21.8696
0.05772,17.5896
0.057876,13.2989
0.058032,9.0029
0.058188,4.7283
0.058344,0.4429
0.0585,-3.8637
0.058656,-8.0797
0.058812,-12.285
0.058968,-16.4529
0.059124,-20.5621
0.05928,-24.5806
0.059436,-28.455
0.059592,-32.148
0.059748,-35.7396
0.059904,-39.2457
0.06006,-42.6559
0.060216,-45.9219
0.060372,-49.1506
0.060528,-52.3312
0.060684,-55.3731
0.06084,-58.3296
0.060996,-61.158
0.061152,-63.7677
0.061308,-66.3453
0.061464,-68.8802
0.06162,-71.3457
0.061776,-73.6938
0.061932,-75.8445
0.062088,-77.8404
0.062244,-79.6816
0.0624,-81.2879
0.062556,-82.6327
0.062712,-83.7801
0.062868,-84.6233
0.063024,-85.1196
0.06318,-85.3384
0.063336,-85.3704
0.063492,-85.157
0.063648,-84.7034
0.063804,-84.0256
0.06396,-83.1344
0.064116,-82.0297
0.064272,-80.6048
0.064428,-78.9238
0.064584,-77.2534
0.06474,-75.5403
0.064896,-73.7312
0.065052,-71.81
0.065208,-69.7874
0.065364,-67.6848
0.06552,-65.4754
0.065676,-63.1113
0.065832,-60.4856
0.065988,-57.7799
0.066144,-54.8981
0.0663,-51.8402
0.066456,-48.6383
0.066612,-45.3242
0.066768,-41.9034
0.066924,-38.2798
0.06708,-34.4428
0.067236,-30.4296
0.067392,-26.3044
0.067548,-22.0297
0.067704,-17.707
0.06786,-13.3737
0.068016,-9.0243
0.068172,-4.7069
0.068328,-0.4056
0.068484,3.9064
0.06864,8.1064
0.068796,12.3223
0.068952,16.4796
0.069108,20.5621
0.069264,24.5379
0.06942,28.3803
0.069576,32.0466
0.069732,35.5848
0.069888,39.0536
0.070044,42.4317
0.0702,45.6711
0.070356,48.8837
0.070512,52.011
0.070668,55.0476
0.070824,58.0201
0.07098,60.8699
0.071136,63.5222
0.071292,66.0944
0.071448,68.6507
0.071604,71.1376
0.07176,73.5177
0.071916,75.7004
0.072072,77.7497
0.072228,79.6282
0.072384,81.2239
0.07254,82.5367
0.072696,83.6841
0.072852,84.5219
0.073008,85.0342
0.073164,85.2584
0.07332,85.2637
0.073476,85.0609
0.073632,84.6233
0.073788,83.9722
0.073944,83.0917
0.0741,82.0137
0.074256,80.6635
0.074412,79.0198
0.074568,77.4028
0.074724,75.7431
0.07488,73.966
0.075036,72.0288
0.075192,69.9902
0.075348,67.8822
0.075504,65.6729
0.07566,63.266
0.075816,60.5497
0.075972,57.812
0.076128,54.9035
0.076284,51.7976
0.07644,48.5422
0.076596,45.2121
0.076752,41.7753
0.076908,38.2211
0.077064,34.4268
0.07722,30.483
0.077376,26.4378
0.077532,22.2485
0.077688,17.9845
0.077844,13.7259
0.078,9.4726
0.078156,5.1979
0.078312,0.9393
0.078468,-3.3621
0.078624,-7.562
0.07878,-11.7833
0.078936,-15.9566
0.079092,-20.0605
0.079248,-24.1163
0.079404,-28.0228
0.07956,-31.7904
0.079716,-35.4087
0.079872,-38.9309
0.080028,-42.3677
0.080184,-45.6978
0.08034,-48.9051
0.080496,-52.1284
0.080652,-55.1757
0.080808,-58.1535
0.080964,-61.0033
0.08112,-63.6076
0.081276,-66.1692
0.081432,-68.6987
0.081588,-71.1429
0.081744,-73.4964
0.0819,-75.6524
0.082056,-77.6696
0.082212,-79.5321
0.082368,-81.1705
0.082524,-82.5367
0.08268,-83.7107
0.082836,-84.5913
0.082992,-85.1463
0.083148,-85.3971
0.083304,-85.4291
0.08346,-85.253
0.083616,-84.8314
0.083772,-84.2017
0.083928,-83.3265
0.084084,-82.2218
0.08424,-80.8076
0.084396,-79.1212
0.084552,-77.4562
0.084708,-75.7538
0.084864,-73.95
0.08502,-72.0288
0.085176,-70.0116
0.085332,-67.9089
0.085488,-65.6889
0.085644,-63.3354
0.0858,-60.7098
0.085956,-58.0308
0.086112,-55.165
0.086268,-52.1071
0.086424,-48.8997
0.08658,-45.591
0.086736,-42.1596
0.086892,-38.5947
0.087048,-34.7576
0.087204,-30.7711
0.08736,-26.6833
0.087516,-22.4193
0.087672,-18.0646
0.087828,-13.7205
0.087984,-9.3872
0.08814,-5.0858
0.088296,-0.7792
0.088452,3.5382
0.088608,7.7435
0.088764,11.9701
0.08892,16.1647
0.089076,20.2953
0.089232,24.2978
0.089388,28.1562
0.089544,31.8491
0.0897,35.414
0.089856,38.9042
0.090012,42.3036
0.090168,45.5857
0.090324,48.7503
0.09048,51.9203
0.090636,54.9515
0.090792,57.9347
0.090948,60.8005
0.091104,63.4635
0.09126,66.0251
0.091416,68.5546
0.091572,71.0362
0.091728,73.411
0.091884,75.5884
0.09204,77.6376
0.092196,79.4948
0.092352,81.1278
0.092508,82.4726
0.092664,83.636
0.09282,84.4952
0.092976,85.0182
0.093132,85.2584
0.093288,85.2904
0.093444,85.1036
0.0936,84.6607
0.093756,84.0309
0.093912,83.1824
0.094068,82.1258
0.094224,80.7809
0.09438,79.1319
0.094536,77.4829
0.094692,75.8232
0.094848,74.0567
0.095004,72.1249
0.09516,70.0969
0.095316,67.9943
0.095472,65.8063
0.095628,63.3994
0.095784,60.7044
0.09594,57.9827
0.096096,55.0903
0.096252,52.0164
0.096408,48.7877
0.096564,45.4629
0.09672,42.0475
0.096876,38.4986
0.097032,34.6989
0.097188,30.7711
0.097344,26.7313
0.0975,22.5367
0.097656,18.2514
0.097812,13.982
0.097968,9.6967
0.098124,5.4327
0.09828,1.1634
0.098436,-3.1273
0.098592,-7.3486
0.098748,-11.5592
0.098904,-15.7325
0.09906,-19.8417
0.099216,-23.8762
0.099372,-27.7719
0.099528,-31.5129
0.099684,-35.0938
0.09984,-38.6214
0.099996,-42.0528
0.100152,-45.3295
0.100308,-48.5742
0.100464,-51.7655
0.10062,-54.8394
0.100776,-57.8226
0.100932,-60.6991
0.101088,-63.3407
0.101244,-65.913
0.1014,-68.4639
0.101556,-70.9401
0.101712,-73.3149
0.101868,-75.503
0.102024,-77.5469
0.10218,-79.4254
0.102336,-81.0798
0.102492,-82.4566
0.102648,-83.6414
0.102804,-84.5379
0.10296,-85.0929
0.103116,-85.3491
0.103272,-85.3918
0.103428,-85.2317
0.103584,-84.8261
0.10374,-84.207
0.103896,-83.3318
0.104052,-82.2538
0.104208,-80.8983
0.104364,-79.2226
0.10452,-77.5576
0.104676,-75.8605
0.104832,-74.0727
0.104988,-72.1729
0.105144,-70.1717
0.1053,-68.0904
0.105456,-65.8917
0.105612,-63.5542
0.105768,-60.9232
0.105924,-58.2656
0.10608,-55.4158
0.106236,-52.3739
0.106392,-49.1879
0.106548,-45.8739
0.106704,-42.4531
0.10686,-38.8775
0.107016,-35.0565
0.107172,-31.0753
0.107328,-26.9714
0.107484,-22.7341
0.10764,-18.3848
0.107796,-14.0621
0.107952,-9.7234
0.108108,-5.4007
0.108264,-1.094
0.10842,3.2127
0.108576,7.4126
0.108732,11.6286
0.108888,15.8125
0.109044,19.9324
0.1092,23.9242
0.109356,27.8093
0.109512,31.5129
0.109668,35.0885
0.109824,38.584
0.10998,41.9834
0.110136,45.2655
0.110292,48.4995
0.110448,51.6695
0.110604,54.6954
0.11076,57.6732
0.110916,60.539
0.111072,63.218
0.111228,65.7849
0.111384,68.3412
0.11154,70.8334
0.111696,73.2135
0.111852,75.3962
0.112008,77.4615
0.112164,79.3347
0.11232,80.9837
0.112476,82.3446
0.112632,83.5186
0.112788,84.4045
0.112944,84.9809
0.1131,85.2637
0.113256,85.3171
0.113412,85.1516
0.113568,84.7407
0.113724,84.1323
0.11388,83.2998
0.114036,82.2538
0.114192,80.941
0.114348,79.3133
0.114504,77.675
0.11466,76.0153
0.114816,74.2595
0.114972,72.3223
0.115128,70.2944
0.115284,68.1971
0.11544,65.9984
0.115596,63.6022
0.115752,60.9072
0.115908,58.2015
0.116064,55.3091
0.11622,52.2405
0.116376,49.0172
0.116532,45.7031
0.116688,42.2983
0.116844,38.7761
0.117,34.9978
0.117156,31.0807
0.117312,27.0568
0.117468,22.8996
0.117624,18.6249
0.11778,14.3503
0.117936,10.1076
0.118092,5.833
0.118248,1.585
0.118404,-2.7217
0.11856,-6.9537
0.118716,-11.1589
0.118872,-15.3322
0.119028,-19.4574
0.119184,-23.5186
0.11934,-27.4517
0.119496,-31.2141
0.119652,-34.8377
0.119808,-38.3759
0.119964,-41.834
0.12012,-45.1641
0.120276,-48.3874
0.120432,-51.6268
0.120588,-54.706
0.120744,-57.6892
0.1209,-60.5657
0.121056,-63.202
0.121212,-65.7689
0.121368,-68.3092
0.121524,-70.78
0.12168,-73.1655
0.121836,-75.3535
0.121992,-77.3868
0.122148,-79.2653
0.122304,-80.9464
0.12246,-82.3392
0.122616,-83.54
0.122772,-84.4739
0.122928,-85.0662
0.123084,-85.3491
0.12324,-85.4131
0.123396,-85.2744
0.123552,-84.8901
0.123708,-84.2818
0.123864,-83.4492
0.12402,-82.3872
0.124176,-81.0424
0.124332,-79.3774
0.124488,-77.7017
0.124644,-76.0099
0.1248,-74.2275
0.124956,-72.3383
0.125112,-70.3317
0.125268,-68.2558
0.125424,-66.0731
0.12558,-63.757
0.125736,-61.142
0.125892,-58.4844
0.126048,-55.6453
0.126204,-52.6247
0.12636,-49.4227
0.126516,-46.1247
0.126672,-42.7199
0.126828,-39.171
0.126984,-35.3767
0.12714,-31.3955
0.127296,-27.3023
0.127452,-23.0597
0.127608,-18.7156
0.127764,-14.3716
0.12792,-10.0169
0.128076,-5.7102
0.128232,-1.4089
0.128388,2.8978
0.128544,7.1244
0.1287,11.3351
0.128856,15.5136
0.129012,19.6282
0.129168,23.6307
0.129324,27.5211
0.12948,31.2461
0.129636,34.8217
0.129792,38.3118
0.129948,41.722
0.130104,45.0467
0.13026,48.2113
0.130416,51.4026
0.130572,54.4659
0.130728,57.4491
0.130884,60.3522
0.13104,63.0312
0.131196,65.6142
0.131352,68.1757
0.131508,70.6626
0.131664,73.0428
0.13182,75.2361
0.131976,77.3174
0.132132,79.2173
0.132288,80.8716
0.132444,82.2325
0.1326,83.4332
0.132756,84.3405
0.132912,84.9435
0.133068,85.2263
0.133224,85.2957
0.13338,85.1516
0.133536,84.7727
0.133692,84.1804
0.133848,83.3745
0.134004,82.3446
0.13416,81.0638
0.134316,79.4521
0.134472,77.8031
0.134628,76.1487
0.134784,74.3876
0.13494,72.4824
0.135096,70.4598
0.135252,68.3679
0.135408,66.1692
0.135564,63.789
0.13572,61.1153
0.135876,58.4203
0.136032,55.5332
0.136188,52.47
0.136344,49.268
0.1365,45.9539
0.136656,42.5598
0.136812,39.0376
0.136968,35.2966
0.137124,31.4062
0.13728,27.393
0.137436,23.2251
0.137592,18.9505
0.137748,14.6971
0.137904,10.4332
0.13806,6.1745
0.138216,1.9212
0.138372,-2.3588
0.138528,-6.5801
0.138684,-10.78
0.13884,-14.98
0.138996,-19.0945
0.139152,-23.1664
0.139308,-27.0942
0.139464,-30.8939
0.13962,-34.5335
0.139776,-38.0824
0.139932,-41.5298
0.140088,-44.8919
0.140244,-48.1099
0.1404,-51.3439
0.140556,-54.4285
0.140712,-57.4117
0.140868,-60.3202
0.141024,-62.9618
0.14118,-65.5288
0.141336,-68.0743
0.141492,-70.5452
0.141648,-72.92
0.141804,-75.1294
0.14196,-77.168
0.142116,-79.0732
0.142272,-80.7702
0.142428,-82.2058
0.142584,-83.4386
0.14274,-84.3885
0.142896,-85.0182
0.143052,-85.3384
0.143208,-85.4291
0.143364,-85.3011
0.14352,-84.9382
0.143676,-84.3618
0.143832,-83.556
0.143988,-82.51
0.144144,-81.1865
0.1443,-79.5268
0.144456,-77.8564
0.144612,-76.1701
0.144768,-74.3929
0.144924,-72.4984
0.14508,-70.4972
0.145236,-68.4426
0.145392,-66.2545
0.145548,-63.9438
0.145704,-61.3395
0.14586,-58.7032
0.146016,-55.8908
0.146172,-52.8756
0.146328,-49.7002
0.146484,-46.4182
0.14664,-43.0401
0.146796,-39.5233
0.146952,-35.7396
0.147108,-31.8011
0.147264,-27.7346
0.14742,-23.508
0.147576,-19.1532
0.147732,-14.8145
0.147888,-10.4759
0.148044,-6.1745
0.1482,-1.8572
0.148356,2.4602
0.148512,6.7188
0.148668,10.9241
0.148824,15.1187
0.14898,19.26
0.149136,23.2998
0.149292,27.2009
0.149448,30.9366
0.149604,34.5388
0.14976,38.045
0.149916,41.4658
0.150072,44.7905
0.150228,47.9338
0.150384,51.1198
0.15054,54.199
0.150696,57.1769
0.150852,60.08
0.151008,62.7857
0.151164,65.3633
0.15132,67.9142
0.151476,70.4065
0.151632,72.808
0.151788,75.0333
0.151944,77.1146
0.1521,79.0465
0.152256,80.7436
0.152412,82.1258
0.152568,83.3532
0.152724,84.2924
0.15288,84.9222
0.153036,85.2263
0.153192,85.3117
0.153348,85.1783
0.153504,84.8154
0.15366,84.2444
0.153816,83.4599
0.153972,82.4513
0.154128,81.1812
0.154284,79.5802
0.15444,77.9365
0.154596,76.2821
0.154752,74.5424
0.154908,72.6425
0.155064,70.6306
0.15522,68.5546
0.155376,66.3773
0.155532,64.0452
0.155688,61.3715
0.155844,58.7085
0.156,55.8427
0.156156,52.8115
0.156312,49.6309
0.156468,46.3115
0.156624,42.928
0.15678,39.4272
0.156936,35.7022
0.157092,31.8065
0.157248,27.8093
0.157404,23.6467
0.15756,19.3827
0.157716,15.0974
0.157872,10.8174
0.158028,6.5427
0.158184,2.2948
0.15834,-1.9852
0.158496,-6.2439
0.158652,-10.4652
0.158808,-14.6705
0.158964,-18.7797
0.15912,-22.8515
0.159276,-26.8167
0.159432,-30.6164
0.159588,-34.256
0.159744,-37.8102
0.1599,-41.279
0.160056,-44.6678
0.160212,-47.8805
0.160368,-51.0771
0.160524,-54.2097
0.16068,-57.1876
0.160836,-60.1121
0.160992,-62.7697
0.161148,-65.3473
0.161304,-67.9036
0.16146,-70.3798
0.161616,-72.7653
0.161772,-74.9853
0.161928,-77.0399
0.162084,-78.9558
0.16224,-80.6582
0.162396,-82.1097
0.162552,-83.3532
0.162708,-84.3405
0.162864,-85.0022
0.16302,-85.3331
0.163176,-85.4345
0.163332,-85.3277
0.163488,-84.9915
0.163644,-84.4205
0.1638,-83.636
0.163956,-82.6007
0.164112,-81.3039
0.164268,-79.6869
0.164424,-78.0005
0.16458,-76.3035
0.164736,-74.521
0.164892,-72.6425
0.165048,-70.6573
0.165204,-68.6027
0.16536,-66.42
0.165516,-64.1199
0.165672,-61.5423
0.165828,-58.9113
0.165984,-56.1149
0.16614,-53.1317
0.166296,-49.9938
0.166452,-46.7384
0.166608,-43.3656
0.166764,-39.8328
0.16692,-36.0758
0.167076,-32.132
0.167232,-28.0708
0.167388,-23.8495
0.167544,-19.5161
0.1677,-15.1774
0.167856,-10.8334
0.168012,-6.4734
0.168168,-2.1453
0.168324,2.188
0.16848,6.452
0.168636,10.668
0.168792,14.8733
0.168948,19.0092
0.169104,23.033
0.16926,26.9448
0.169416,30.6804
0.169572,34.2827
0.169728,37.7782
0.169884,41.1883
0.17004,44.5023
0.170196,47.6777
0.170352,50.869
0.170508,53.9429
0.170664,56.9154
0.17082,59.8292
0.170976,62.5509
0.171132,65.1392
0.171288,67.6954
0.171444,70.225
0.1716,72.6479
0.171756,74.9053
0.171912,76.9972
0.172068,78.9291
0.172224,80.6422
0.17238,82.0404
0.172536,83.2891
0.172692,84.2497
0.172848,84.9062
0.173004,85.237
0.17316,85.3331
0.173316,85.2157
0.173472,84.8581
0.173628,84.3084
0.173784,83.5186
0.17394,82.542
0.174096,81.3146
0.174252,79.7456
0.174408,78.0966
0.174564,76.4529
0.17472,74.7185
0.174876,72.8293
0.175032,70.8067
0.175188,68.7361
0.175344,66.5694
0.1755,64.248
0.175656,61.5956
0.175812,58.906
0.175968,56.0669
0.176124,53.0196
0.17628,49.839
0.176436,46.5303
0.176592,43.1628
0.176748,39.6834
0.176904,35.9584
0.17706,32.0573
0.177216,28.0601
0.177372,23.9296
0.177528,19.6549
0.177684,15.3749
0.17784,11.1056
0.177996,6.8309
0.178152,2.5829
0.178308,-1.7184
0.178464,-5.9984
0.17862,-10.209
0.178776,-14.4036
0.178932,-18.5235
0.179088,-22.5954
0.179244,-26.5498
0.1794,-30.3442
0.179556,-33.9945
0.179712,-37.5434
0.179868,-41.0068
0.180024,-44.3689
0.18018,-47.5869
0.180336,-50.8209
0.180492,-53.9322
0.180648,-56.9261
0.180804,-59.8346
0.18096,-62.5189
0.181116,-65.1018
0.181272,-67.6527
0.181428,-70.1396
0.181584,-72.5411
0.18174,-74.7985
0.181896,-76.8745
0.182052,-78.817
0.182208,-80.5461
0.182364,-82.0137
0.18252,-83.2891
0.182676,-84.2818
0.182832,-84.9542
0.182988,-85.3117
0.183144,-85.4398
0.1833,-85.3598
0.183456,-85.0236
0.183612,-84.4846
0.183768,-83.7054
0.183924,-82.6914
0.18408,-81.416
0.184236,-79.7936
0.184392,-78.1073
0.184548,-76.4369
0.184704,-74.6598
0.18486,-72.8026
0.185016,-70.8174
0.185172,-68.7628
0.185328,-66.5908
0.185484,-64.312
0.18564,-61.7824
0.185796,-59.1355
0.185952,-56.3497
0.186108,-53.3612
0.186264,-50.2339
0.18642,-46.9572
0.186576,-43.5844
0.186732,-40.0889
0.186888,-36.3426
0.187044,-32.4148
0.1872,-28.3376
0.187356,-24.1217
0.187512,-19.783
0.187668,-15.4389
0.187824,-11.0789
0.18798,-6.7509
0.188136,-2.4495
0.188292,1.8465
0.188448,6.1318
0.188604,10.3318
0.18876,14.5477
0.188916,18.6729
0.189072,22.6914
0.189228,26.6086
0.189384,30.3549
0.18954,33.9411
0.189696,37.4473
0.189852,40.8734
0.190008,44.2142
0.190164,47.3895
0.19032,50.5968
0.190476,53.6814
0.190632,56.6913
0.190788,59.6318
0.190944,62.3695
0.1911,64.9631
0.191256,67.53
0.191412,70.0542
0.191568,72.4824
0.191724,74.7452
0.19188,76.8478
0.192036,78.801
0.192192,80.5141
0.192348,81.9443
0.192504,83.1984
0.19266,84.1537
0.192816,84.8314
0.192972,85.189
0.193128,85.3064
0.193284,85.1997
0.19344,84.8688
0.193596,84.3351
0.193752,83.588
0.193908,82.606
0.194064,81.3893
0.19422,79.8417
0.194376,78.1766
0.194532,76.5383
0.194688,74.8039
0.194844,72.9414
0.195,70.9401
0.195156,68.8695
0.195312,66.7028
0.195468,64.3814
0.195624,61.7557
0.19578,59.0714
0.195936,56.2697
0.196092,53.2438
0.196248,50.0792
0.196404,46.8078
0.19656,43.4617
0.196716,39.9982
0.196872,36.2839
0.197028,32.4148
0.197184,28.4284
0.19734,24.2924
0.197496,20.0178
0.197652,15.7538
0.197808,11.4791
0.197964,7.2045
0.19812,2.9405
0.198276,-1.3555
0.198432,-5.6355
0.198588,-9.8461
0.198744,-14.0674
0.1989,-18.198
0.199056,-22.2592
0.199212,-26.2083
0.199368,-30.008
0.199524,-33.6689
0.19968,-37.2285
0.199836,-40.708
0.199992,-44.0754
0.200148,-47.3094
0.200304,-50.5328
0.20046,-53.6707
0.200616,-56.6539
0.200772,-59.6051
0.200928,-62.3428
0.201084,-64.9257
0.20124,-67.4927
0.201396,-69.9955
0.201552,-72.4184
0.201708,-74.6918
0.201864,-76.7624
0.20202,-78.7103
0.202176,-80.4554
0.202332,-81.9283
0.202488,-83.2038
0.202644,-84.2177
0.2028,-84.9168
0.202956,-85.285
0.203112,-85.4238
0.203268,-85.3384
0.203424,-85.0236
0.20358,-84.5059
0.203736,-83.7534
0.203892,-82.7608
0.204048,-81.528
0.204204,-79.9324
0.20436,-78.246
0.204516,-76.5756
0.204672,-74.8199
0.204828,-72.9681
0.204984,-70.9882
0.20514,-68.9496
0.205296,-66.7829
0.205452,-64.4988
0.205608,-61.9799
0.205764,-59.3222
0.20592,-56.5739
0.206076,-53.6067
0.206232,-50.4847
0.206388,-47.2187
0.206544,-43.8619
0.2067,-40.3504
0.206856,-36.6628
0.207012,-32.7404
0.207168,-28.7059
0.207324,-24.5379
0.20748,-20.1992
0.207636,-15.8499
0.207792,-11.4952
0.207948,-7.1618
0.208104,-2.8444
0.20826,1.4622
0.208416,5.7476
0.208572,9.9315
0.208728,14.1475
0.208884,18.2994
0.20904,22.3606
0.209196,26.315
0.209352,30.0774
0.209508,33.7116
0.209664,37.2338
0.20982,40.6866
0.209976,44.0434
0.210132,47.2507
0.210288,50.426
0.210444,53.5266
0.2106,56.5152
0.210756,59.4396
0.210912,62.1934
0.211068,64.787
0.211224,67.3646
0.21138,69.8835
0.211536,72.3116
0.211692,74.5637
0.211848,76.6557
0.212004,78.6142
0.21216,80.354
0.212316,81.7949
0.212472,83.1077
0.212628,84.1163
0.212784,84.8208
0.21294,85.1943
0.213096,85.3224
0.213252,85.2477
0.213408,84.9488
0.213564,84.4152
0.21372,83.6734
0.213876,82.7181
0.214032,81.5387
0.214188,80.0178
0.214344,78.3474
0.2145,76.6877
0.214656,74.9693
0.214812,73.1175
0.214968,71.1216
0.215124,69.0563
0.21528,66.9003
0.215436,64.6055
0.215592,62.0226
0.215748,59.3009
0.215904,56.4938
0.21606,53.4733
0.216216,50.3193
0.216372,47.0212
0.216528,43.6538
0.216684,40.1743
0.21684,36.5187
0.216996,32.671
0.217152,28.6952
0.217308,24.5966
0.217464,20.354
0.21762,16.1007
0.217776,11.826
0.217932,7.5514
0.218088,3.3087
0.218244,-0.9446
0.2184,-5.1979
0.218556,-9.3978
0.218712,-13.6138
0.218868,-17.755
0.219024,-21.8536
0.21918,-25.8614
0.219336,-29.7198
0.219492,-33.4235
0.219648,-36.9937
0.219804,-40.4785
0.21996,-43.8833
0.220116,-47.128
0.220272,-50.3727
0.220428,-53.4946
0.220584,-56.5045
0.22074,-59.4396
0.220896,-62.1507
0.221052,-64.7229
0.221208,-67.2899
0.221364,-69.7821
0.22152,-72.1889
0.221676,-74.4623
0.221832,-76.549
0.221988,-78.5022
0.222144,-80.2526
0.2223,-81.7629
0.222456,-83.065
0.222612,-84.127
0.222768,-84.8635
0.222924,-85.2797
0.22308,-85.4238
0.223236,-85.3598
0.223392,-85.0609
0.223548,-84.5593
0.223704,-83.8015
0.22386,-82.8195
0.224016,-81.6028
0.224172,-80.0338
0.224328,-78.3527
0.224484,-76.6824
0.22464,-74.9266
0.224796,-73.0801
0.224952,-71.1162
0.225108,-69.0883
0.225264,-66.943
0.22542,-64.6856
0.225576,-62.2094
0.225732,-59.5624
0.225888,-56.8087
0.226044,-53.8628
0.2262,-50.7462
0.226356,-47.4855
0.226512,-44.1341
0.226668,-40.6546
0.226824,-36.919
0.22698,-33.0072
0.227136,-28.962
0.227292,-24.7888
0.227448,-20.4661
0.227604,-16.138
0.22776,-11.794
0.227916,-7.4553
0.228072,-3.1273
0.228228,1.1741
0.228384,5.4701
0.22854,9.6327
0.228696,13.8486
0.228852,17.9899
0.229008,22.0297
0.229164,25.9521
0.22932,29.7252
0.229476,33.3808
0.229632,36.919
0.229788,40.3451
0.229944,43.6752
0.2301,46.8718
0.230256,50.0792
0.230412,53.1637
0.230568,56.1683
0.230724,59.0981
0.23088,61.8945
0.231036,64.4881
0.231192,67.0657
0.231348,69.6006
0.231504,72.0448
0.23166,74.3449
0.231816,76.4529
0.231972,78.4381
0.232128,80.2259
0.232284,81.6988
0.23244,82.9263
0.232596,83.9349
0.232752,84.698
0.232908,85.0716
0.233064,85.2263
0.23322,85.157
0.233376,84.8314
0.233532,84.3191
0.233688,83.588
0.233844,82.6594
0.234,81.4907
0.234156,80.0018
0.234312,78.3634
0.234468,76.7571
0.234624,75.076
0.23478,73.2562
0.234936,71.271
0.235092,69.2377
0.235248,67.1084
0.235404,64.8457
0.23556,62.2894
0.235716,59.557
0.235872,56.798
0.236028,53.7988
0.236184,50.6448
0.23634,47.3575
0.236496,44.006
0.236652,40.5746
0.236808,36.9136
0.236964,33.0766
0.23712,29.1061
0.237276,25.0236
0.237432,20.7969
0.237588,16.5436
0.237744,12.2796
0.2379,8.0263
0.238056,3.7837
0.238212,-0.491
0.238368,-4.803
0.238524,-9.0083
0.23868,-13.2509
0.238836,-17.4082
0.238992,-21.5227
0.239148,-25.5626
0.239304,-29.4477
0.23946,-33.162
0.239616,-36.7749
0.239772,-40.2811
0.239928,-43.7019
0.240084,-46.9625
0.24024,-50.1539
0.240396,-53.3185
0.240552,-56.323
0.240708,-59.2529
0.240864,-61.9532
0.24102,-64.5148
0.241176,-67.055
0.241332,-69.5526
0.241488,-71.9594
0.241644,-74.2542
0.2418,-76.3408
0.241956,-78.294
0.242112,-80.0925
0.242268,-81.6294
0.242424,-82.9583
0.24258,-84.0416
0.242736,-84.8261
0.242892,-85.2744
0.243048,-85.4452
0.243204,-85.4185
0.24336,-85.1516
0.243516,-84.6553
0.243672,-83.9455
0.243828,-82.9743
0.243984,-81.7789
0.24414,-80.2152
0.244296,-78.5235
0.244452,-76.8531
0.244608,-75.1027
0.244764,-73.2669
0.24492,-71.3084
0.245076,-69.2804
0.245232,-67.1137
0.245388,-64.8617
0.245544,-62.4122
0.2457,-59.7598
0.245856,-57.0061
0.246012,-54.087
0.246168,-50.981
0.246324,-47.731
0.24648,-44.3796
0.246636,-40.8841
0.246792,-37.2552
0.246948,-33.3754
0.247104,-29.3463
0.24726,-25.1943
0.247416,-20.8877
0.247572,-16.565
0.247728,-12.2103
0.247884,-7.8716
0.24804,-3.5595
0.248196,0.7151
0.248352,5.0218
0.248508,9.2057
0.248664,13.4537
0.24882,17.611
0.248976,21.7042
0.249132,25.6853
0.249288,29.5117
0.249444,33.1726
0.2496,36.7055
0.249756,40.169
0.249912,43.5311
0.250068,46.7544
0.250224,49.9511
0.25038,53.057
0.250536,56.0562
0.250692,58.9914
0.250848,61.7557
0.251004,64.344
0.25116,66.9056
0.251316,69.4352
0.251472,71.874
0.251628,74.1635
0.251784,76.2821
0.25194,78.2834
0.252096,80.0605
0.252252,81.5707
0.252408,82.8889
0.252564,83.9669
0.25272,84.7354
0.252876,85.1676
0.253032,85.3171
0.253188,85.2797
0.253344,85.0182
0.2535,84.5433
0.253656,83.8228
0.253812,82.8942
0.253968,81.7522
0.254124,80.2793
0.25428,78.6089
0.254436,76.9812
0.254592,75.2788
0.254748,73.459
0.254904,71.4738
0.25506,69.4192
0.255216,67.2792
0.255372,65.0111
0.255528,62.4869
0.255684,59.7492
0.25584,56.9848
0.255996,53.9909
0.256152,50.8423
0.256308,47.5656
0.256464,44.1982
0.25662,40.756
0.256776,37.1111
0.256932,33.2794
0.257088,29.3142
0.257244,25.2317
0.2574,20.9997
0.257556,16.7357
0.257712,12.4771
0.257868,8.2078
0.258024,3.9545
0.25818,-0.3095
0.258336,-4.6055
0.258492,-8.7948
0.258648,-13.0054
0.258804,-17.1627
0.25896,-21.2772
0.259116,-25.2957
0.259272,-29.1648
0.259428,-32.8738
0.259584,-36.4814
0.25974,-39.9715
0.259896,-43.3656
0.260052,-46.605
0.260208,-49.8657
0.260364,-52.9983
0.26052,-56.0242
0.260676,-58.97
0.260832,-61.7184
0.260988,-64.296
0.261144,-66.8576
0.2613,-69.3765
0.261456,-71.8153
0.261612,-74.1101
0.261768,-76.2181
0.261924,-78.2033
0.26208,-80.0071
0.262236,-81.5761
0.262392,-82.9156
0.262548,-84.0363
0.262704,-84.8314
0.26286,-85.285
0.263016,-85.4612
0.263172,-85.4345
0.263328,-85.1783
0.263484,-84.7034
0.26364,-84.0043
0.263796,-83.0757
0.263952,-81.8963
0.264108,-80.3593
0.264264,-78.6623
0.26442,-77.0026
0.264576,-75.2735
0.264732,-73.4377
0.264888,-71.4738
0.265044,-69.4459
0.2652,-67.3005
0.265356,-65.0591
0.265512,-62.6256
0.265668,-59.9626
0.265824,-57.2196
0.26598,-54.2951
0.266136,-51.1892
0.266292,-47.9231
0.266448,-44.5824
0.266604,-41.1349
0.26676,-37.4686
0.266916,-33.5942
0.267072,-29.5811
0.267228,-25.4452
0.267384,-21.1545
0.26754,-16.8318
0.267696,-12.5038
0.267852,-8.1758
0.268008,-3.8691
0.268164,0.4163
0.26832,4.7389
0.268476,8.9175
0.268632,13.1442
0.268788,17.3014
0.268944,21.3946
0.2691,25.3865
0.269256,29.2182
0.269412,32.9005
0.269568,36.4493
0.269724,39.9288
0.26988,43.2909
0.270036,46.4983
0.270192,49.7056
0.270348,52.8115
0.270504,55.8267
0.27066,58.7726
0.270816,61.553
0.270972,64.1466
0.271128,66.7135
0.271284,69.2484
0.27144,71.7033
0.271596,74.014
0.271752,76.1434
0.271908,78.1606
0.272064,79.9591
0.27222,81.5067
0.272376,82.8409
0.272532,83.9349
0.272688,84.7247
0.272844,85.1783
0.273,85.3598
0.273156,85.3384
0.273312,85.0823
0.273468,84.5913
0.273624,83.9029
0.27378,82.985
0.273936,81.8643
0.274092,80.402
0.274248,78.7263
0.274404,77.0826
0.27456,75.3909
0.274716,73.5818
0.274872,71.6125
0.275028,69.5633
0.275184,67.4233
0.27534,65.1712
0.275496,62.679
0.275652,59.9466
0.275808,57.1716
0.275964,54.2044
0.27612,51.0611
0.276276,47.7897
0.276432,44.4436
0.276588,40.9908
0.276744,37.3993
0.2769,33.5622
0.277056,29.6184
0.277212,25.5466
0.277368,21.3253
0.277524,17.0613
0.27768,12.7973
0.277836,8.5386
0.277992,4.296
0.278148,0.048
0.278304,-4.2373
0.27846,-8.4372
0.278616,-12.6692
0.278772,-16.8265
0.278928,-20.9517
0.279084,-24.9809
0.27924,-28.898
0.279396,-32.623
0.279552,-36.2305
0.279708,-39.7367
0.279864,-43.1575
0.28002,-46.4556
0.280176,-49.6415
0.280332,-52.8222
0.280488,-55.8267
0.280644,-58.7886
0.2808,-61.5476
0.280956,-64.1092
0.281112,-66.6655
0.281268,-69.179
0.281424,-71.6072
0.28158,-73.918
0.281736,-76.0313
0.281892,-78.0112
0.282048,-79.8417
0.282204,-81.4267
0.28236,-82.7822
0.282516,-83.9295
0.282672,-84.7567
0.282828,-85.253
0.282984,-85.4505
0.28314,-85.4398
0.283296,-85.221
0.283452,-84.746
0.283608,-84.0736
0.283764,-83.129
0.28392,-81.9763
0.284076,-80.4607
0.284232,-78.7743
0.284388,-77.12
0.284544,-75.3856
0.2847,-73.5551
0.284856,-71.6125
0.285012,-69.6006
0.285168,-67.4606
0.285324,-65.2246
0.28548,-62.8071
0.285636,-60.1761
0.285792,-57.4651
0.285948,-54.5726
0.286104,-51.4774
0.28626,-48.2433
0.286416,-44.8973
0.286572,-41.4284
0.286728,-37.7942
0.286884,-33.9358
0.28704,-29.944
0.287196,-25.8081
0.287352,-21.5067
0.287508,-17.168
0.287664,-12.8293
0.28782,-8.5173
0.287976,-4.2053
0.288132,0.0694
0.288288,4.3814
0.288444,8.544
0.2886,12.7706
0.288756,16.9652
0.288912,21.0638
0.289068,25.0449
0.289224,28.882
0.28938,32.5589
0.289536,36.1345
0.289692,39.6193
0.289848,42.9921
0.290004,46.2421
0.29016,49.4388
0.290316,52.566
0.290472,55.5812
0.290628,58.5271
0.290784,61.3448
0.29094,63.9331
0.291096,66.5107
0.291252,69.0349
0.291408,71.5005
0.291564,73.8166
0.29172,75.9566
0.291876,77.9738
0.292032,79.7936
0.292188,81.368
0.292344,82.7021
0.2925,83.8228
0.292656,84.6393
0.292812,85.1356
0.292968,85.3331
0.293124,85.3224
0.29328,85.0769
0.293436,84.6393
0.293592,83.9722
0.293748,83.0863
0.293904,81.9763
0.29406,80.5301
0.294216,78.8651
0.294372,77.2267
0.294528,75.535
0.294684,73.7312
0.29484,71.7726
0.294996,69.718
0.295152,67.5994
0.295308,65.3527
0.295464,62.8711
0.29562,60.1494
0.295776,57.401
0.295932,54.4659
0.296088,51.3493
0.296244,48.0886
0.2964,44.7585
0.296556,41.3217
0.296712,37.7301
0.296868,33.9251
0.297024,29.9867
0.29718,25.9468
0.297336,21.7522
0.297492,17.4775
0.297648,13.2082
0.297804,8.9389
0.29796,4.6802
0.298116,0.4216
0.298272,-3.8744
0.298428,-8.0904
0.298584,-12.317
0.29874,-16.4903
0.298896,-20.6315
0.299052,-24.6767
0.299208,-28.5884
0.299364,-32.3081
0.29952,-35.9263
0.299676,-39.4432
0.299832,-42.8747
0.299988,-46.1354
0.300144,-49.3747
0.3003,-52.534
0.300456,-55.5652
0.300612,-58.5217
0.300768,-61.3021
0.300924,-63.8797
0.30108,-66.4627
0.301236,-68.9816
0.301392,-71.4204
0.301548,-73.7525
0.301704,-75.8872
0.30186,-77.8938
0.302016,-79.7243
0.302172,-81.3519
0.302328,-82.7075
0.302484,-83.8708
0.30264,-84.73
0.302796,-85.2263
0.302952,-85.4398
0.303108,-85.4505
0.303264,-85.2477
0.30342,-84.7887
0.303576,-84.1217
0.303732,-83.2144
0.303888,-82.0884
0.304044,-80.6262
0.3042,-78.9344
0.304356,-77.2534
0.304512,-75.519
0.304668,-73.7045
0.304824,-71.762
0.30498,-69.7554
0.305136,-67.6421
0.305292,-65.4114
0.305448,-63.0152
0.305604,-60.3896
0.30576,-57.6679
0.305916,-54.7754
0.306072,-51.6962
0.306228,-48.4675
0.306384,-45.1374
0.30654,-41.7006
0.306696,-38.093
0.306852,-34.2506
0.307008,-30.2642
0.307164,-26.1496
0.30732,-21.891
0.307476,-17.5736
0.307632,-13.2349
0.307788,-8.9175
0.307944,-4.5949
0.3081,-0.2828
0.308256,4.0132
0.308412,8.1758
0.308568,12.4024
0.308724,16.5596
0.30888,20.6742
0.309036,24.6767
0.309192,28.5618
0.309348,32.2601
0.309504,35.825
0.30966,39.2938
0.309816,42.6719
0.309972,45.9166
0.310128,49.1292
0.310284,52.2565
0.31044,55.2824
0.310596,58.2442
0.310752,61.0727
0.310908,63.6876
0.311064,66.2652
0.31122,68.8161
0.311376,71.2924
0.311532,73.6458
0.311688,75.7965
0.311844,77.8351
0.312,79.6869
0.312156,81.3039
0.312312,82.6274
0.312468,83.7748
0.312624,84.6233
0.31278,85.1303
0.312936,85.3384
0.313092,85.3277
0.313248,85.1196
0.313404,84.6767
0.31356,84.0149
0.313716,83.1397
0.313872,82.035
0.314028,80.6475
0.314184,78.9878
0.31434,77.3494
0.314496,75.6791
0.314652,73.886
0.314808,71.9167
0.314964,69.8888
0.31512,67.7755
0.315276,65.5661
0.315432,63.1273
0.315588,60.4109
0.315744,57.6519
0.3159,54.7274
0.316056,51.6161
0.316212,48.3714
0.316368,45.0414
0.316524,41.6206
0.31668,38.061
0.316836,34.2827
0.316992,30.3602
0.317148,26.3204
0.317304,22.1098
0.31746,17.8404
0.317616,13.5818
0.317772,9.3338
0.317928,5.0752
0.318084,0.7952
0.31824,-3.5169
0.318396,-7.7221
0.318552,-11.9541
0.318708,-16.138
0.318864,-20.2793
0.31902,-24.3351
0.319176,-28.2683
0.319332,-32.0253
0.319488,-35.6542
0.319644,-39.1764
0.3198,-42.6078
0.319956,-45.9272
0.320112,-49.1025
0.320268,-52.3045
0.320424,-55.3571
0.32058,-58.2923
0.320736,-61.1153
0.320892,-63.7036
0.321048,-66.2706
0.321204,-68.8001
0.32136,-71.2497
0.321516,-73.5764
0.321672,-75.7324
0.321828,-77.755
0.321984,-79.6015
0.32214,-81.2505
0.322296,-82.6274
0.322452,-83.8015
0.322608,-84.6873
0.322764,-85.221
0.32292,-85.4558
0.323076,-85.4878
0.323232,-85.3011
0.323388,-84.8635
0.323544,-84.2231
0.3237,-83.3425
0.323856,-82.2218
0.324012,-80.7596
0.324168,-79.0678
0.324324,-77.3975
0.32448,-75.6737
0.324636,-73.8593
0.324792,-71.9327
0.324948,-69.8995
0.325104,-67.7968
0.32526,-65.5875
0.325416,-63.202
0.325572,-60.5763
0.325728,-57.876
0.325884,-54.9835
0.32604,-51.9256
0.326196,-48.7023
0.326352,-45.4096
0.326508,-41.9888
0.326664,-38.4346
0.32682,-34.6029
0.326976,-30.6164
0.327132,-26.5178
0.327288,-22.2592
0.327444,-17.9258
0.3276,-13.5925
0.327756,-9.2644
0.327912,-4.9524
0.328068,-0.6511
0.328224,3.6983
0.32838,7.9036
0.328536,12.1355
0.328692,16.3248
0.328848,20.4394
0.329004,24.4632
0.32916,28.3643
0.329316,32.084
0.329472,35.6649
0.329628,39.1443
0.329784,42.5224
0.32994,45.7671
0.330096,48.9531
0.330252,52.0964
0.330408,55.1223
0.330564,58.0841
0.33072,60.9232
0.330876,63.5329
0.331032,66.1051
0.331188,68.6454
0.331344,71.1162
0.3315,73.475
0.331656,75.6417
0.331812,77.7017
0.331968,79.5481
0.332124,81.1652
0.33228,82.5207
0.332436,83.6841
0.332592,84.5486
0.332748,85.0769
0.332904,85.3117
0.33306,85.3438
0.333216,85.157
0.333372,84.7247
0.333528,84.095
0.333684,83.2358
0.33384,82.1578
0.333996,80.7756
0.334152,79.1266
0.334308,77.4935
0.334464,75.8178
0.33462,74.0301
0.334776,72.0822
0.334932,70.0489
0.335088,67.9409
0.335244,65.7316
0.3354,63.3194
0.335556,60.6084
0.335712,57.8867
0.335868,54.9675
0.336024,51.8669
0.33618,48.6169
0.336336,45.2975
0.336492,41.9034
0.336648,38.3652
0.336804,34.5868
0.33696,30.6591
0.337116,26.6086
0.337272,22.4086
0.337428,18.1339
0.337584,13.8753
0.33774,9.6113
0.337896,5.342
0.338052,1.078
0.338208,-3.2287
0.338364,-7.4553
0.33852,-11.6873
0.338676,-15.8765
0.338832,-19.9964
0.338988,-24.0363
0.339144,-27.9694
0.3393,-31.7371
0.339456,-35.3767
0.339612,-38.9202
0.339768,-42.3463
0.339924,-45.6444
0.34008,-48.8677
0.340236,-52.0644
0.340392,-55.0903
0.340548,-58.0681
0.340704,-60.9072
0.34086,-63.5062
0.341016,-66.0731
0.341172,-68.6027
0.341328,-71.0522
0.341484,-73.395
0.34164,-75.5617
0.341796,-77.5896
0.341952,-79.4468
0.342108,-81.1118
0.342264,-82.4886
0.34242,-83.6787
0.342576,-84.5913
0.342732,-85.1676
0.342888,-85.4291
0.343044,-85.4558
0.3432,-85.2904
0.343356,-84.8848
0.343512,-84.2711
0.343668,-83.4012
0.343824,-82.2912
0.34398,-80.8716
0.344136,-79.1853
0.344292,-77.5202
0.344448,-75.8178
0.344604,-74.0034
0.34476,-72.0928
0.344916,-70.0756
0.345072,-67.989
0.345228,-65.7849
0.345384,-63.4101
0.34554,-60.8112
0.345696,-58.1535
0.345852,-55.2877
0.346008,-52.2618
0.346164,-49.0492
0.34632,-45.7351
0.346476,-42.3036
0.346632,-38.7441
0.346788,-34.9337
0.346944,-30.9739
0.3471,-26.8754
0.347256,-22.6061
0.347412,-18.262
0.347568,-13.9127
0.347724,-9.5846
0.34788,-5.2619
0.348036,-0.9499
0.348192,3.3781
0.348348,7.5727
0.348504,11.794
0.34866,15.9726
0.348816,20.0925
0.348972,24.1057
0.349128,27.9854
0.349284,31.6997
0.34944,35.2753
0.349596,38.7815
0.349752,42.1702
0.349908,45.4683
0.350064,48.6276
0.35022,51.8082
0.350376,54.8448
0.350532,57.796
0.350688,60.6724
0.350844,63.3087
0.351,65.8917
0.351156,68.4479
0.351312,70.9348
0.351468,73.2989
0.351624,75.4763
0.35178,77.5309
0.351936,79.3934
0.352092,81.0371
0.352248,82.4139
0.352404,83.588
0.35256,84.4899
0.352716,85.0556
0.352872,85.3171
0.353028,85.3598
0.353184,85.1783
0.35334,84.7674
0.353496,84.159
0.353652,83.3425
0.353808,82.2805
0.353964,80.941
0.35412,79.292
0.354276,77.6483
0.354432,75.9726
0.354588,74.1848
0.354744,72.2529
0.3549,70.2143
0.355056,68.1277
0.355212,65.9343
0.355368,63.5329
0.355524,60.8325
0.35568,58.1322
0.355836,55.2237
0.355992,52.1444
0.356148,48.9211
0.356304,45.6124
0.35646,42.2076
0.356616,38.6854
0.356772,34.9231
0.356928,31.0006
0.357084,26.9768
0.35724,22.7875
0.357396,18.5235
0.357552,14.2489
0.357708,9.9742
0.357864,5.6889
0.35802,1.4089
0.358176,-2.8871
0.358332,-7.1351
0.358488,-11.3564
0.358644,-15.5403
0.3588,-19.6656
0.358956,-23.7321
0.359112,-27.6759
0.359268,-31.4489
0.359424,-35.0725
0.35958,-38.6107
0.359736,-42.0475
0.359892,-45.3882
0.360048,-48.5689
0.360204,-51.7709
0.36036,-54.8448
0.360516,-57.8066
0.360672,-60.6564
0.360828,-63.2767
0.360984,-65.849
0.36114,-68.3892
0.361296,-70.8494
0.361452,-73.2135
0.361608,-75.3909
0.361764,-77.4242
0.36192,-79.308
0.362076,-80.9837
0.362232,-82.4086
0.362388,-83.6147
0.362544,-84.5486
0.3627,-85.1356
0.362856,-85.4185
0.363012,-85.4772
0.363168,-85.3438
0.363324,-84.9595
0.36348,-84.3511
0.363636,-83.5133
0.363792,-82.4353
0.363948,-81.0424
0.364104,-79.3614
0.36426,-77.6803
0.364416,-75.9619
0.364572,-74.1635
0.364728,-72.2636
0.364884,-70.2517
0.36504,-68.1757
0.365196,-65.9824
0.365352,-63.6343
0.365508,-61.0246
0.365664,-58.3723
0.36582,-55.5279
0.365976,-52.5073
0.366132,-49.3213
0.366288,-46.0393
0.366444,-42.6185
0.3666,-39.0803
0.366756,-35.2806
0.366912,-31.3048
0.367068,-27.2063
0.367224,-22.9529
0.36738,-18.6142
0.367536,-14.2702
0.367692,-9.9368
0.367848,-5.5981
0.368004,-1.2861
0.36816,3.0312
0.368316,7.2632
0.368472,11.4845
0.368628,15.6684
0.368784,19.783
0.36894,23.8121
0.369096,27.7132
0.369252,31.4329
0.369408,35.0298
0.369564,38.52
0.36972,41.9194
0.369876,45.2068
0.370032,48.4088
0.370188,51.5894
0.370344,54.6206
0.3705,57.5771
0.370656,60.4536
0.370812,63.1113
0.370968,65.6942
0.371124,68.2505
0.37128,70.732
0.371436,73.1175
0.371592,75.3162
0.371748,77.3868
0.371904,79.26
0.37206,80.9143
0.372216,82.2965
0.372372,83.4866
0.372528,84.4098
0.372684,85.0075
0.37284,85.3011
0.372996,85.3598
0.373152,85.189
0.373308,84.7994
0.373464,84.2177
0.37362,83.3959
0.373776,82.3606
0.373932,81.0424
0.374088,79.4094
0.374244,77.771
0.3744,76.1113
0.374556,74.3449
0.374712,72.4184
0.374868,70.3744
0.375024,68.2985
0.37518,66.1105
0.375336,63.7303
0.375492,61.0353
0.375648,58.3616
0.375804,55.4692
0.37596,52.4219
0.376116,49.2039
0.376272,45.8899
0.376428,42.5011
0.376584,38.9949
0.37674,35.2379
0.376896,31.3368
0.377052,27.313
0.377208,23.1397
0.377364,18.8704
0.37752,14.5904
0.377676,10.3104
0.377832,6.0411
0.377988,1.7558
0.378144,-2.5723
0.3783,-6.7936
0.378456,-11.0149
0.378612,-15.1935
0.378768,-19.3347
0.378924,-23.4012
0.37908,-27.361
0.379236,-31.1394
0.379392,-34.7736
0.379548,-38.3118
0.379704,-41.7593
0.37986,-45.084
0.380016,-48.2967
0.380172,-51.5361
0.380328,-54.594
0.380484,-57.5771
0.38064,-60.4429
0.380796,-63.0739
0.380952,-65.6568
0.381108,-68.2131
0.381264,-70.684
0.38142,-73.0695
0.381576,-75.2682
0.381732,-77.3068
0.381888,-79.2013
0.382044,-80.893
0.3822,-82.3179
0.382356,-83.5506
0.382512,-84.5112
0.382668,-85.125
0.382824,-85.4345
0.38298,-85.5039
0.383136,-85.3651
0.383292,-84.9862
0.383448,-84.4045
0.383604,-83.5773
0.38376,-82.51
0.383916,-81.1598
0.384072,-79.4894
0.384228,-77.8191
0.384384,-76.1167
0.38454,-74.3182
0.384696,-72.4077
0.384852,-70.3904
0.385008,-68.3092
0.385164,-66.1371
0.38532,-63.805
0.385476,-61.2061
0.385632,-58.5698
0.385788,-55.7307
0.385944,-52.7261
0.3861,-49.5562
0.386256,-46.2795
0.386412,-42.896
0.386568,-39.3738
0.386724,-35.5848
0.38688,-31.6357
0.387036,-27.5585
0.387192,-23.3372
0.387348,-18.9985
0.387504,-14.6544
0.38766,-10.3051
0.387816,-5.9557
0.387972,-1.633
0.388128,2.711
0.388284,6.959
0.38844,11.1803
0.388596,15.3642
0.388752,19.5055
0.388908,23.5506
0.389064,27.4571
0.38922,31.2034
0.389376,34.779
0.389532,38.2745
0.389688,41.6632
0.389844,44.9773
0.39,48.1259
0.390156,51.3012
0.390312,54.3591
0.390468,57.3157
0.390624,60.2081
0.39078,62.8764
0.390936,65.4647
0.391092,68.0263
0.391248,70.5185
0.391404,72.92
0.39156,75.1401
0.391716,77.2214
0.391872,79.1372
0.392028,80.8076
0.392184,82.2058
0.39234,83.4279
0.392496,84.3725
0.392652,84.9969
0.392808,85.2904
0.392964,85.3598
0.39312,85.221
0.393276,84.8581
0.393432,84.2764
0.393588,83.4759
0.393744,82.4566
0.3939,81.1705
0.394056,79.5535
0.394212,77.9098
0.394368,76.2448
0.394524,74.4783
0.39468,72.5731
0.394836,70.5452
0.394992,68.4693
0.395148,66.2866
0.395304,63.9438
0.39546,61.2594
0.395616,58.5751
0.395772,55.688
0.395928,52.6407
0.396084,49.4601
0.39624,46.1567
0.396396,42.7733
0.396552,39.2778
0.396708,35.5421
0.396864,31.6357
0.39702,27.6225
0.397176,23.4653
0.397332,19.1959
0.397488,14.932
0.397644,10.6466
0.3978,6.3666
0.397956,2.092
0.398112,-2.22
0.398268,-6.4574
0.398424,-10.6786
0.39858,-14.8733
0.398736,-18.9931
0.398892,-23.0864
0.399048,-27.0568
0.399204,-30.8672
0.39936,-34.5228
0.399516,-38.0557
0.399672,-41.4978
0.399828,-44.8546
0.399984,-48.0672
0.40014,-51.2692
0.400296,-54.3698
0.400452,-57.337
0.400608,-60.2401
0.400764,-62.8818
0.40092,-65.4594
0.401076,-68.0156
0.401232,-70.4865
0.401388,-72.8613
0.401544,-75.0654
0.4017,-77.12
0.401856,-79.0305
0.402012,-80.7489
0.402168,-82.1898
0.402324,-83.4439
0.40248,-84.4312
0.402636,-85.0876
0.402792,-85.4185
0.402948,-85.5039
0.403104,-85.3758
0.40326,-85.0182
0.403416,-84.4739
0.403572,-83.6787
0.403728,-82.6274
0.403884,-81.2932
0.40404,-79.6389
0.404196,-77.9472
0.404352,-76.2501
0.404508,-74.457
0.404664,-72.5678
0.40482,-70.5719
0.404976,-68.4959
0.405132,-66.3186
0.405288,-63.9971
0.405444,-61.4302
0.4056,-58.8046
0.405756,-55.9762
0.405912,-52.9876
0.406068,-49.8443
0.406224,-46.573
0.40638,-43.1842
0.406536,-39.6727
0.406692,-35.9263
0.406848,-31.9826
0.407004,-27.9214
0.40716,-23.6841
0.407316,-19.34
0.407472,-14.98
0.407628,-10.6413
0.407784,-6.2759
0.40794,-1.9586
0.408096,2.3641
0.408252,6.6228
0.408408,10.8387
0.408564,15.0387
0.40872,19.1799
0.408876,23.2304
0.409032,27.1529
0.409188,30.8992
0.409344,34.4908
0.4095,37.9863
0.409656,41.3857
0.409812,44.6945
0.409968,47.8591
0.410124,51.0504
0.41028,54.103
0.410436,57.0808
0.410592,59.9786
0.410748,62.6737
0.410904,65.2619
0.41106,67.8235
0.411216,70.3424
0.411372,72.7439
0.411528,74.98
0.411684,77.0559
0.41184,78.9825
0.411996,80.6849
0.412152,82.0991
0.412308,83.3532
0.412464,84.3084
0.41262,84.9649
0.412776,85.2797
0.412932,85.3651
0.413088,85.2317
0.413244,84.8795
0.4134,84.3191
0.413556,83.5346
0.413712,82.5473
0.413868,81.2986
0.414024,79.6869
0.41418,78.0325
0.414336,76.3728
0.414492,74.6171
0.414648,72.7226
0.414804,70.7
0.41496,68.6133
0.415116,66.4413
0.415272,64.1145
0.415428,61.4409
0.415584,58.7619
0.41574,55.9014
0.415896,52.8702
0.416052,49.7002
0.416208,46.4182
0.416364,43.0668
0.41652,39.598
0.416676,35.873
0.416832,31.9772
0.416988,27.9854
0.417144,23.8442
0.4173,19.5909
0.417456,15.3322
0.417612,11.0415
0.417768,6.7615
0.417924,2.4709
0.41808,-1.8358
0.418236,-6.1211
0.418392,-10.3531
0.418548,-14.5584
0.418704,-18.6943
0.41886,-22.7875
0.419016,-26.7687
0.419172,-30.579
0.419328,-34.2293
0.419484,-37.7782
0.41964,-41.215
0.419796,-44.5504
0.419952,-47.7844
0.420108,-51.0131
0.420264,-54.0763
0.42042,-57.0648
0.420576,-59.9466
0.420732,-62.6096
0.420888,-65.1926
0.421044,-67.7595
0.4212,-70.2464
0.421356,-72.6372
0.421512,-74.8786
0.421668,-76.9492
0.421824,-78.8811
0.42198,-80.6155
0.422136,-82.0724
0.422292,-83.3478
0.422448,-84.3565
0.422604,-85.0342
0.42276,-85.3864
0.422916,-85.4718
0.423072,-85.3758
0.423228,-85.0396
0.423384,-84.4952
0.42354,-83.7001
0.423696,-82.6808
0.423852,-81.4
0.424008,-79.7776
0.424164,-78.0912
0.42432,-76.4049
0.424476,-74.6278
0.424632,-72.7439
0.424788,-70.7533
0.424944,-68.6934
0.4251,-66.5214
0.425256,-64.2266
0.425412,-61.6864
0.425568,-59.0394
0.425724,-56.2376
0.42588,-53.2491
0.426036,-50.1165
0.426192,-46.8505
0.426348,-43.483
0.426504,-39.9715
0.42666,-36.2572
0.426816,-32.3134
0.426972,-28.2522
0.427128,-24.0416
0.427284,-19.7456
0.42744,-15.4123
0.427596,-11.0682
0.427752,-6.7295
0.427908,-2.3962
0.428064,1.9319
0.42822,6.2172
0.428376,10.4278
0.428532,14.6438
0.428688,18.7904
0.428844,22.8409
0.429,26.7847
0.429156,30.5737
0.429312,34.1919
0.429468,37.7035
0.429624,41.1242
0.42978,44.4543
0.429936,47.6243
0.430092,50.8156
0.430248,53.8949
0.430404,56.8514
0.43056,59.7598
0.430716,62.4495
0.430872,65.0271
0.431028,67.594
0.431184,70.1076
0.43134,72.5304
0.431496,74.7718
0.431652,76.8585
0.431808,78.785
0.431964,80.5141
0.43212,81.955
0.432276,83.2358
0.432432,84.2231
0.432588,84.9168
0.432744,85.2744
0.4329,85.3811
0.433056,85.269
0.433212,84.9435
0.433368,84.4045
0.433524,83.652
0.43368,82.6648
0.433836,81.4427
0.433992,79.863
0.434148,78.2033
0.434304,76.5596
0.43446,74.8145
0.434616,72.92
0.434772,70.9081
0.434928,68.8322
0.435084,66.6708
0.43524,64.3494
0.435396,61.7184
0.435552,59.0394
0.435708,56.211
0.435864,53.1637
0.43602,49.9884
0.436176,46.701
0.436332,43.3496
0.436488,39.8595
0.436644,36.1985
0.4368,32.3081
0.436956,28.3163
0.437112,24.1964
0.437268,19.9271
0.437424,15.6577
0.43758,11.3938
0.437736,7.1191
0.437892,2.8338
0.438048,-1.4516
0.438204,-5.7422
0.43836,-9.9582
0.438516,-14.1795
0.438672,-18.3261
0.438828,-22.4406
0.438984,-26.4218
0.43914,-30.2535
0.439296,-33.9411
0.439452,-37.506
0.439608,-40.9641
0.439764,-44.3262
0.43992,-47.5442
0.440076,-50.7622
0.440232,-53.8735
0.440388,-56.862
0.440544,-59.7758
0.4407,-62.4442
0.440856,-65.0111
0.441012,-67.562
0.441168,-70.0329
0.441324,-72.4344
0.44148,-74.6918
0.441636,-76.7624
0.441792,-78.7103
0.441948,-80.4607
0.442104,-81.955
0.44226,-83.2571
0.442416,-84.2818
0.442572,-84.9969
0.442728,-85.3864
0.442884,-85.4985
0.44304,-85.4398
0.443196,-85.125
0.443352,-84.586
0.443508,-83.8121
0.443664,-82.8088
0.44382,-81.5441
0.443976,-79.9057
0.444132,-78.214
0.444288,-76.5329
0.444444,-74.7612
0.4446,-72.872
0.444756,-70.8868
0.444912,-68.8215
0.445068,-66.6548
0.445224,-64.3707
0.44538,-61.8571
0.445536,-59.2262
0.445692,-56.4618
0.445848,-53.4839
0.446004,-50.362
0.44616,-47.08
0.446316,-43.7285
0.446472,-40.2597
0.446628,-36.5294
0.446784,-32.6069
0.44694,-28.5511
0.447096,-24.3458
0.447252,-20.0124
0.447408,-15.6577
0.447564,-11.2924
0.44772,-6.9643
0.447876,-2.6523
0.448032,1.681
0.448188,5.961
0.448344,10.177
0.4485,14.3983
0.448656,18.5342
0.448812,22.5794
0.448968,26.5125
0.449124,30.2695
0.44928,33.8771
0.449436,37.3886
0.449592,40.8041
0.449748,44.0914
0.449904,47.3254
0.45006,50.4794
0.450216,53.5266
0.450372,56.5205
0.450528,59.4343
0.450684,62.1934
0.45084,64.7816
0.450996,67.3486
0.451152,69.8835
0.451308,72.317
0.451464,74.5797
0.45162,76.693
0.451776,78.6676
0.451932,80.4287
0.452088,81.8803
0.452244,83.1717
0.4524,84.1003
0.452556,84.8208
0.452712,85.1837
0.452868,85.2904
0.453024,85.1943
0.45318,84.8688
0.453336,84.3351
0.453492,83.5773
0.453648,82.6167
0.453804,81.4053
0.45396,79.8577
0.454116,78.214
0.454272,76.581
0.454428,74.8732
0.454584,73.0268
0.45474,71.0362
0.454896,68.9869
0.455052,66.8469
0.455208,64.5628
0.455364,61.9585
0.45552,59.2582
0.455676,56.4618
0.455832,53.4412
0.455988,50.298
0.456144,47.0052
0.4563,43.6645
0.456456,40.1957
0.456612,36.508
0.456768,32.671
0.456924,28.6792
0.45708,24.5913
0.457236,20.3487
0.457392,16.09
0.457548,11.8047
0.457704,7.53
0.45786,3.2393
0.458016,-1.0353
0.458172,-5.3206
0.458328,-9.5366
0.458484,-13.7632
0.45864,-17.9258
0.458796,-22.0457
0.458952,-26.0695
0.459108,-29.9173
0.459264,-33.6049
0.45942,-37.1858
0.459576,-40.6706
0.459732,-44.0434
0.459888,-47.2774
0.460044,-50.5221
0.4602,-53.5907
0.460356,-56.6005
0.460512,-59.5144
0.460668,-62.188
0.460824,-64.7656
0.46098,-67.3272
0.461136,-69.8248
0.461292,-72.2263
0.461448,-74.4943
0.461604,-76.5543
0.46176,-78.5235
0.461916,-80.2953
0.462072,-81.8216
0.462228,-83.1397
0.462384,-84.207
0.46254,-84.9488
0.462696,-85.3544
0.462852,-85.4985
0.463008,-85.4398
0.463164,-85.1623
0.46332,-84.6447
0.463476,-83.9029
0.463632,-82.9102
0.463788,-81.6775
0.463944,-80.0711
0.4641,-78.3634
0.464256,-76.6717
0.464412,-74.8946
0.464568,-73.0374
0.464724,-71.0735
0.46488,-69.0189
0.465036,-66.8522
0.465192,-64.5788
0.465348,-62.0973
0.465504,-59.445
0.46566,-56.6966
0.465816,-53.7561
0.465972,-50.6342
0.466128,-47.4055
0.466284,-44.0541
0.46644,-40.5799
0.466596,-36.9136
0.466752,-33.0019
0.466908,-28.9674
0.467064,-24.8101
0.46722,-20.4927
0.467376,-16.1701
0.467532,-11.8153
0.467688,-7.4767
0.467844,-3.1593
0.468,1.1687
0.468156,5.4701
0.468312,9.6487
0.468468,13.87
0.468624,18.0326
0.46878,22.1311
0.468936,26.1016
0.469092,29.9119
0.469248,33.5462
0.469404,37.0737
0.46956,40.5052
0.469716,43.8513
0.469872,47.0586
0.470028,50.2339
0.470184,53.3292
0.47034,56.2964
0.470496,59.2048
0.470652,61.9479
0.470808,64.5255
0.470964,67.1031
0.47112,69.6273
0.471276,72.0555
0.471432,74.3396
0.471588,76.4476
0.471744,78.4275
0.4719,80.2099
0.472056,81.6828
0.472212,83.0223
0.472368,84.0843
0.472524,84.8208
0.47268,85.2317
0.472836,85.3811
0.472992,85.3384
0.473148,85.0556
0.473304,84.5326
0.47346,83.8121
0.473616,82.8622
0.473772,81.6828
0.473928,80.1298
0.474084,78.4755
0.47424,76.8211
0.474396,75.0974
0.474552,73.2349
0.474708,71.223
0.474864,69.163
0.47502,66.9963
0.475176,64.7283
0.475332,62.1773
0.475488,59.461
0.475644,56.6859
0.4758,53.6921
0.475956,50.5488
0.476112,47.2774
0.476268,43.9527
0.476424,40.4892
0.47658,36.8709
0.476736,33.0179
0.476892,29.0474
0.477048,24.9702
0.477204,20.7329
0.47736,16.4689
0.477516,12.1889
0.477672,7.8982
0.477828,3.6129
0.477984,-0.6511
0.47814,-4.9524
0.478296,-9.1684
0.478452,-13.4003
0.478608,-17.5469
0.478764,-21.6775
0.47892,-25.7013
0.479076,-29.5704
0.479232,-33.2687
0.479388,-36.8389
0.479544,-40.3184
0.4797,-43.7232
0.479856,-46.9786
0.480012,-50.1966
0.480168,-53.3452
0.480324,-56.3284
0.48048,-59.2582
0.480636,-61.9692
0.480792,-64.5415
0.480948,-67.1137
0.481104,-69.6326
0.48126,-72.0501
0.481416,-74.3342
0.481572,-76.4262
0.481728,-78.3954
0.481884,-80.1779
0.48204,-81.7095
0.482196,-83.0597
0.482352,-84.1483
0.482508,-84.9275
0.482664,-85.3598
0.48282,-85.5145
0.482976,-85.4772
0.483132,-85.2157
0.483288,-84.7034
0.483444,-83.9829
0.4836,-83.0276
0.483756,-81.8162
0.483912,-80.2312
0.484068,-78.5342
0.484224,-76.8531
0.48438,-75.0814
0.484536,-73.2242
0.484692,-71.2443
0.484848,-69.2004
0.485004,-67.0657
0.48516,-64.819
0.485316,-62.3641
0.485472,-59.6958
0.485628,-56.9528
0.485784,-54.0123
0.48594,-50.8957
0.486096,-47.6616
0.486252,-44.3369
0.486408,-40.8948
0.486564,-37.2125
0.48672,-33.3274
0.486876,-29.3036
0.487032,-25.1356
0.487188,-20.8396
0.487344,-16.4956
0.4875,-12.1569
0.487656,-7.8075
0.487812,-3.4688
0.487968,0.8805
0.488124,5.1766
0.48828,9.3658
0.488436,13.6031
0.488592,17.7764
0.488748,21.8696
0.488904,25.8507
0.48906,29.6985
0.489216,33.3594
0.489372,36.8816
0.489528,40.3184
0.489684,43.6538
0.48984,46.8451
0.489996,50.0471
0.490152,53.1264
0.490308,56.1149
0.490464,59.0394
0.49062,61.7931
0.490776,64.36
0.490932,66.9216
0.491088,69.4565
0.491244,71.8954
0.4914,74.2115
0.491556,76.3301
0.491712,78.3314
0.491868,80.1085
0.492024,81.6294
0.49218,82.9583
0.492336,84.0309
0.492492,84.7887
0.492648,85.2317
0.492804,85.3971
0.49296,85.3544
0.493116,85.0716
0.493272,84.586
0.493428,83.8762
0.493584,82.9316
0.49374,81.7629
0.493896,80.2312
0.494052,78.5769
0.494208,76.9279
0.494364,75.2148
0.49452,73.3736
0.494676,71.3724
0.494832,69.3124
0.494988,67.1724
0.495144,64.9204
0.4953,62.3961
0.495456,59.6798
0.495612,56.9047
0.495768,53.9162
0.495924,50.7729
0.49608,47.5015
0.496236,44.1822
0.496392,40.7614
0.496548,37.1218
0.496704,33.306
0.49686,29.3356
0.497016,25.2477
0.497172,21.0051
0.497328,16.7411
0.497484,12.4664
0.49764,8.1918
0.497796,3.9064
0.497952,-0.3682
0.498108,-4.6856
0.498264,-8.9069
0.49842,-13.1282
0.498576,-17.2908
0.498732,-21.4213
0.498888,-25.4612
0.499044,-29.3463
0.4992,-33.0552
0.499356,-36.6415
0.499512,-40.137
0.499668,-43.5257
0.499824,-46.7544
0.49998,-49.9884
0.500136,-53.105
0.500292,-56.1256
0.500448,-59.0554
0.500604,-61.7771
0.50076,-64.344
0.500916,-66.9056
0.501072,-69.4085
0.501228,-71.8367
0.501384,-74.1368
0.50154,-76.2394
0.501696,-78.2247
0.501852,-80.0338
0.502008,-81.5921
0.502164,-82.9423
0.50232,-84.063
0.502476,-84.8741
0.502632,-85.3331
0.502788,-85.5092
0.502944,-85.4985
0.5031,-85.2477
0.503256,-84.7727
0.503412,-84.0736
0.503568,-83.113
0.503724,-81.923
0.50388,-80.338
0.504036,-78.6409
0.504192,-76.9652
0.504348,-75.2201
0.504504,-73.363
0.50466,-71.3937
0.504816,-69.3391
0.504972,-67.1991
0.505128,-64.9524
0.505284,-62.5082
0.50544,-59.8612
0.505596,-57.1395
0.505752,-54.2257
0.505908,-51.1358
0.506064,-47.9071
0.50622,-44.5824
0.506376,-41.1242
0.506532,-37.506
0.506688,-33.6316
0.506844,-29.6184
0.507,-25.4665
0.507156,-21.1652
0.507312,-16.8105
0.507468,-12.4557
0.507624,-8.101
0.50778,-3.7784
0.507936,0.5603
0.508092,4.8777
0.508248,9.0776
0.508404,13.3256
0.50856,17.4935
0.508716,21.5974
0.508872,25.5786
0.509028,29.405
0.509184,33.0606
0.50934,36.6094
0.509496,40.0409
0.509652,43.387
0.509808,46.5836
0.509964,49.759
0.51012,52.8595
0.510276,55.8321
0.510432,58.7672
0.510588,61.5583
0.510744,64.1572
0.5109,66.7242
0.511056,69.2537
0.511212,71.7086
0.511368,74.0247
0.511524,76.1487
0.51168,78.1766
0.511836,79.9858
0.511992,81.5494
0.512148,82.8675
0.512304,83.9776
0.51246,84.7674
0.512616,85.2157
0.512772,85.3811
0.512928,85.3544
0.513084,85.0983
0.51324,84.618
0.513396,83.9242
0.513552,83.017
0.513708,81.8749
0.513864,80.3807
0.51402,78.6943
0.514176,77.0453
0.514332,75.3375
0.514488,73.5071
0.514644,71.5218
0.5148,69.4672
0.514956,67.3326
0.515112,65.0965
0.515268,62.6043
0.515424,59.8826
0.51558,57.1129
0.515736,54.1564
0.515892,51.0344
0.516048,47.7844
0.516204,44.4543
0.51636,41.0175
0.516516,37.4366
0.516672,33.6102
0.516828,29.6611
0.516984,25.5946
0.51714,21.3573
0.517296,17.088
0.517452,12.7973
0.517608,8.5173
0.517764,4.2266
0.51792,-0.032
0.518076,-4.344
0.518232,-8.544
0.518388,-12.7759
0.518544,-16.9545
0.5187,-21.0798
0.518856,-25.125
0.519012,-29.0047
0.519168,-32.735
0.519324,-36.3373
0.51948,-39.8274
0.519636,-43.2216
0.519792,-46.4822
0.519948,-49.7056
0.520104,-52.8595
0.52026,-55.8694
0.520416,-58.8099
0.520572,-61.5636
0.520728,-64.1466
0.520884,-66.7242
0.52104,-69.2324
0.521196,-71.6446
0.521352,-73.966
0.521508,-76.09
0.521664,-78.0752
0.52182,-79.9004
0.521976,-81.496
0.522132,-82.8622
0.522288,-83.9989
0.522444,-84.8154
0.5226,-85.3011
0.522756,-85.5039
0.522912,-85.5039
0.523068,-85.269
0.523224,-84.8048
0.52338,-84.127
0.523536,-83.1984
0.523692,-82.035
0.523848,-80.5034
0.524004,-78.785
0.52416,-77.1093
0.524316,-75.3642
0.524472,-73.5124
0.524628,-71.5538
0.524784,-69.5152
0.52494,-67.3966
0.525096,-65.1712
0.525252,-62.743
0.525408,-60.1067
0.525564,-57.369
0.52572,-54.4712
0.525876,-51.408
0.526032,-48.1846
0.526188,-44.8706
0.526344,-41.4498
0.5265,-37.8262
0.526656,-33.9411
0.526812,-29.944
0.526968,-25.8081
0.527124,-21.5281
0.52728,-17.168
0.527436,-12.824
0.527592,-8.4799
0.527748,-4.1412
0.527904,0.1868
0.52806,4.5095
0.528216,8.7041
0.528372,12.936
0.528528,17.1253
0.528684,21.2399
0.52884,25.2424
0.528996,29.0848
0.529152,32.7404
0.529308,36.2946
0.529464,39.7367
0.52962,43.1041
0.529776,46.3221
0.529932,49.5295
0.530088,52.6407
0.530244,55.6346
0.5304,58.5698
0.530556,61.3502
0.530712,63.9491
0.530868,66.5267
0.531024,69.0723
0.53118,71.5485
0.531336,73.8753
0.531492,76.0206
0.531648,78.0432
0.531804,79.8523
0.53196,81.4213
0.532116,82.7501
0.532272,83.8815
0.532428,84.698
0.532584,85.1837
0.53274,85.3864
0.532896,85.3758
0.533052,85.125
0.533208,84.666
0.533364,83.9882
0.53352,83.0917
0.533676,81.971
0.533832,80.5087
0.533988,78.8437
0.534144,77.216
0.5343,75.5136
0.534456,73.6885
0.534612,71.6926
0.534768,69.6433
0.534924,67.5087
0.53508,65.2779
0.535236,62.8071
0.535392,60.1067
0.535548,57.3423
0.535704,54.3965
0.53586,51.2799
0.536016,48.0352
0.536172,44.7265
0.536328,41.3004
0.536484,37.7248
0.53664,33.9144
0.536796,29.9706
0.536952,25.9095
0.537108,21.6775
0.537264,17.3975
0.53742,13.1335
0.537576,8.8535
0.537732,4.5628
0.537888,0.2722
0.538044,-4.0452
0.5382,-8.2558
0.538356,-12.4878
0.538512,-16.661
0.538668,-20.7969
0.538824,-24.8314
0.53898,-28.7325
0.539136,-32.4522
0.539292,-36.0384
0.539448,-39.5339
0.539604,-42.9387
0.53976,-46.2208
0.539916,-49.4067
0.540072,-52.5927
0.540228,-55.5973
0.540384,-58.5431
0.54054,-61.3235
0.540696,-63.9011
0.540852,-66.484
0.541008,-69.0083
0.541164,-71.4471
0.54132,-73.7899
0.541476,-75.9299
0.541632,-77.9418
0.541788,-79.7723
0.541944,-81.4
0.5421,-82.7555
0.542256,-83.9135
0.542412,-84.7621
0.542568,-85.269
0.542724,-85.4985
0.54288,-85.5199
0.543036,-85.3064
0.543192,-84.8474
0.543348,-84.1644
0.543504,-83.2518
0.54366,-82.1044
0.543816,-80.6155
0.543972,-78.9078
0.544128,-77.2267
0.544284,-75.4816
0.54444,-73.6618
0.544596,-71.7139
0.544752,-69.686
0.544908,-67.5514
0.545064,-65.31
0.54522,-62.9191
0.545376,-60.2935
0.545532,-57.5878
0.545688,-54.706
0.545844,-51.6481
0.546,-48.4355
0.546156,-45.1374
0.546312,-41.6899
0.546468,-38.093
0.546624,-34.2613
0.54678,-30.2695
0.546936,-26.1549
0.547092,-21.8803
0.547248,-17.5362
0.547404,-13.1922
0.54756,-8.8482
0.547716,-4.5041
0.547872,-0.1921
0.548028,4.1306
0.548184,8.3305
0.54834,12.5678
0.548496,16.7411
0.548652,20.8717
0.548808,24.8635
0.548964,28.7325
0.54912,32.4202
0.549276,35.9744
0.549432,39.4379
0.549588,42.8
0.549744,46.0767
0.5499,49.2093
0.550056,52.3739
0.550212,55.3784
0.550368,58.3243
0.550524,61.1474
0.55068,63.7463
0.550836,66.3346
0.550992,68.8802
0.551148,71.3617
0.551304,73.7045
0.55146,75.8552
0.551616,77.9098
0.551772,79.7403
0.551928,81.3413
0.552084,82.6648
0.55224,83.8175
0.552396,84.6553
0.552552,85.1783
0.552708,85.3864
0.552864,85.3918
0.55302,85.1837
0.553176,84.7247
0.553332,84.0576
0.553488,83.1877
0.553644,82.0831
0.5538,80.6635
0.553956,78.9931
0.554112,77.3548
0.554268,75.6577
0.554424,73.8539
0.55458,71.8794
0.554736,69.8301
0.554892,67.7061
0.555048,65.4807
0.555204,63.0205
0.55536,60.3202
0.555516,57.5665
0.555672,54.6473
0.555828,51.5574
0.555984,48.3234
0.55614,45.0093
0.556296,41.5779
0.556452,38.0183
0.556608,34.224
0.556764,30.2908
0.55692,26.251
0.557076,22.0511
0.557232,17.7817
0.557388,13.5071
0.557544,9.2271
0.5577,4.9471
0.557856,0.6564
0.558012,-3.6503
0.558168,-7.8769
0.558324,-12.1249
0.55848,-16.2981
0.558636,-20.4234
0.558792,-24.4846
0.558948,-28.4017
0.559104,-32.148
0.55926,-35.7609
0.559416,-39.2938
0.559572,-42.7092
0.559728,-46.0126
0.559884,-49.1986
0.56004,-52.3846
0.560196,-55.4051
0.560352,-58.367
0.560508,-61.1687
0.560664,-63.757
0.56082,-66.3186
0.560976,-68.8535
0.561132,-71.2977
0.561288,-73.6245
0.561444,-75.7858
0.5616,-77.7924
0.561756,-79.6389
0.561912,-81.2826
0.562068,-82.6594
0.562224,-83.8228
0.56238,-84.7087
0.562536,-85.2424
0.562692,-85.4878
0.562848,-85.5252
0.563004,-85.3331
0.56316,-84.9062
0.563316,-84.2604
0.563472,-83.3692
0.563628,-82.2485
0.563784,-80.7756
0.56394,-79.0732
0.564096,-77.3921
0.564252,-75.6684
0.564408,-73.8433
0.564564,-71.8954
0.56472,-69.8675
0.564876,-67.7488
0.565032,-65.5181
0.565188,-63.1326
0.565344,-60.5123
0.5655,-57.8066
0.565656,-54.9302
0.565812,-51.8883
0.565968,-48.6916
0.566124,-45.3989
0.56628,-41.9834
0.566436,-38.3919
0.566592,-34.5495
0.566748,-30.5737
0.566904,-26.4698
0.56706,-22.2058
0.567216,-17.8671
0.567372,-13.5177
0.567528,-9.1577
0.567684,-4.803
0.56784,-0.4856
0.567996,3.8477
0.568152,8.053
0.568308,12.301
0.568464,16.5009
0.56862,20.6262
0.568776,24.6393
0.568932,28.5244
0.569088,32.2067
0.569244,35.7556
0.5694,39.2244
0.569556,42.6078
0.569712,45.8579
0.569868,49.0385
0.570024,52.1711
0.57018,55.1703
0.570336,58.1161
0.570492,60.9446
0.570648,63.5649
0.570804,66.1478
0.57096,68.6934
0.571116,71.1643
0.571272,73.5177
0.571428,75.6844
0.571584,77.7337
0.57174,79.5802
0.571896,81.2078
0.572052,82.574
0.572208,83.7374
0.572364,84.602
0.57252,85.1356
0.572676,85.3704
0.572832,85.3918
0.572988,85.1943
0.573144,84.7567
0.5733,84.1217
0.573456,83.2678
0.573612,82.1951
0.573768,80.7863
0.573924,79.1372
0.57408,77.4935
0.574236,75.7965
0.574392,73.9767
0.574548,72.0075
0.574704,69.9742
0.57486,67.8609
0.575016,65.6408
0.575172,63.2073
0.575328,60.507
0.575484,57.7639
0.57564,54.8394
0.575796,51.7495
0.575952,48.5262
0.576108,45.2335
0.576264,41.818
0.57642,38.2798
0.576576,34.4908
0.576732,30.5737
0.576888,26.5392
0.577044,22.3499
0.5772,18.0806
0.577356,13.8113
0.577512,9.5366
0.577668,5.2406
0.577824,0.9499
0.57798,-3.3621
0.578136,-7.5834
0.578292,-11.8047
0.578448,-15.9939
0.578604,-20.1405
0.57876,-24.2231
0.578916,-28.1508
0.579072,-31.9078
0.579228,-35.5261
0.579384,-39.0483
0.57954,-42.4637
0.579696,-45.7618
0.579852,-48.9318
0.580008,-52.1338
0.580164,-55.165
0.58032,-58.1268
0.580476,-60.9499
0.580632,-63.5489
0.580788,-66.1105
0.580944,-68.6507
0.5811,-71.1056
0.581256,-73.4484
0.581412,-75.615
0.581568,-77.6376
0.581724,-79.5001
0.58188,-81.1812
0.582036,-82.5687
0.582192,-83.7588
0.582348,-84.6713
0.582504,-85.2263
0.58266,-85.4825
0.582816,-85.5252
0.582972,-85.3438
0.583128,-84.9275
0.583284,-84.2978
0.58344,-83.4226
0.583596,-82.3125
0.583752,-80.8716
0.583908,-79.1799
0.584064,-77.5042
0.58422,-75.7805
0.584376,-73.95
0.584532,-72.0021
0.584688,-69.9795
0.584844,-67.8662
0.585,-65.6675
0.585156,-63.298
0.585312,-60.6831
0.585468,-58.0094
0.585624,-55.149
0.58578,-52.1231
0.585936,-48.9424
0.586092,-45.6711
0.586248,-42.2556
0.586404,-38.6907
0.58656,-34.891
0.586716,-30.9259
0.586872,-26.822
0.587028,-22.5474
0.587184,-18.198
0.58734,-13.8379
0.587496,-9.4779
0.587652,-5.1339
0.587808,-0.8058
0.587964,3.5489
0.58812,7.7702
0.588276,12.0128
0.588432,16.2234
0.588588,20.354
0.588744,24.3672
0.5889,28.2469
0.589056,31.9345
0.589212,35.4994
0.589368,38.9629
0.589524,42.3357
0.58968,45.6017
0.589836,48.729
0.589992,51.8936
0.590148,54.8981
0.590304,57.86
0.59046,60.7204
0.590616,63.3514
0.590772,65.9397
0.590928,68.4959
0.591084,70.9828
0.59124,73.363
0.591396,75.5563
0.591552,77.6109
0.591708,79.4841
0.591864,81.1331
0.59202,82.5047
0.592176,83.6734
0.592332,84.5433
0.592488,85.1089
0.592644,85.3598
0.5928,85.3864
0.592956,85.189
0.593112,84.7727
0.593268,84.1644
0.593424,83.3212
0.59358,82.2432
0.593736,80.8876
0.593892,79.2333
0.594048,77.5896
0.594204,75.9086
0.59436,74.1154
0.594516,72.1569
0.594672,70.1129
0.594828,68.0103
0.594984,65.8063
0.59514,63.3781
0.595296,60.6938
0.595452,57.9774
0.595608,55.0743
0.595764,52.0057
0.59592,48.7984
0.596076,45.511
0.596232,42.1062
0.596388,38.5893
0.596544,34.8163
0.5967,30.9099
0.596856,26.8914
0.597012,22.7075
0.597168,18.4328
0.597324,14.1475
0.59748,9.8675
0.597636,5.5715
0.597792,1.2861
0.597948,-3.0366
0.598104,-7.2685
0.59826,-11.5058
0.598416,-15.7111
0.598572,-19.8523
0.598728,-23.9296
0.598884,-27.8573
0.59904,-31.6197
0.599196,-35.2326
0.599352,-38.7548
0.599508,-42.1702
0.599664,-45.4629
0.59982,-48.681
0.599976,-51.8616
0.600132,-54.9035
0.600288,-57.8493
0.600444,-60.6884
0.6006,-63.2927
0.600756,-65.8756
0.600912,-68.4106
0.601068,-70.8708
0.601224,-73.2402
0.60138,-75.4229
0.601536,-77.4615
0.601692,-79.3347
0.601848,-81.0317
0.602004,-82.4406
0.60216,-83.6574
0.602316,-84.5913
0.602472,-85.189
0.602628,-85.4612
0.602784,-85.5092
0.60294,-85.3491
0.603096,-84.9488
0.603252,-84.3405
0.603408,-83.4973
0.603564,-82.4193
0.60372,-81.0051
0.603876,-79.3187
0.604032,-77.6536
0.604188,-75.9352
0.604344,-74.1314
0.6045,-72.2049
0.604656,-70.177
0.604812,-68.0904
0.604968,-65.8917
0.605124,-63.5489
0.60528,-60.9392
0.605436,-58.2709
0.605592,-55.4211
0.605748,-52.3899
0.605904,-49.2093
0.60606,-45.9219
0.606216,-42.5331
0.606372,-38.9896
0.606528,-35.1792
0.606684,-31.2248
0.60684,-27.1422
0.606996,-22.8996
0.607152,-18.5502
0.607308,-14.2062
0.607464,-9.8408
0.60762,-5.5021
0.607776,-1.1794
0.607932,3.1646
0.608088,7.3859
0.608244,11.6232
0.6084,15.8178
0.608556,19.9537
0.608712,23.9776
0.608868,27.8733
0.609024,31.593
0.60918,35.1685
0.609336,38.6427
0.609492,42.0208
0.609648,45.2868
0.609804,48.4461
0.60996,51.6214
0.610116,54.6527
0.610272,57.6038
0.610428,60.475
0.610584,63.1273
0.61074,65.7102
0.610896,68.2665
0.611052,70.7533
0.611208,73.1442
0.611364,75.3535
0.61152,77.4242
0.611676,79.3133
0.611832,80.973
0.611988,82.3659
0.612144,83.5506
0.6123,84.4685
0.612456,85.0556
0.612612,85.3384
0.612768,85.3864
0.612924,85.221
0.61308,84.8208
0.613236,84.2177
0.613392,83.3745
0.613548,82.3339
0.613704,81.0157
0.61386,79.372
0.614016,77.723
0.614172,76.0473
0.614328,74.2702
0.614484,72.3223
0.61464,70.2891
0.614796,68.1864
0.614952,65.9877
0.615108,63.6022
0.615264,60.9179
0.61542,58.2282
0.615576,55.3304
0.615732,52.2939
0.615888,49.0972
0.616044,45.8098
0.6162,42.4264
0.616356,38.9255
0.616512,35.1685
0.616668,31.2514
0.616824,27.2543
0.61698,23.081
0.617136,18.817
0.617292,14.5317
0.617448,10.2464
0.617604,5.9557
0.61776,1.6704
0.617916,-2.6577
0.618072,-6.911
0.618228,-11.1483
0.618384,-15.3482
0.61854,-19.4895
0.618696,-23.5667
0.618852,-27.5104
0.619008,-31.2781
0.619164,-34.8964
0.61932,-38.4186
0.619476,-41.8554
0.619632,-45.1908
0.619788,-48.3607
0.619944,-51.5734
0.6201,-54.6367
0.620256,-57.5985
0.620412,-60.4643
0.620568,-63.0846
0.620724,-65.6675
0.62088,-68.2131
0.621036,-70.6893
0.621192,-73.0641
0.621348,-75.2682
0.621504,-77.3281
0.62166,-79.2173
0.621816,-80.909
0.621972,-82.3339
0.622128,-83.5613
0.622284,-84.5166
0.62244,-85.1303
0.622596,-85.4345
0.622752,-85.5039
0.622908,-85.3651
0.623064,-84.9809
0.62322,-84.3832
0.623376,-83.556
0.623532,-82.4833
0.623688,-81.1225
0.623844,-79.4468
0.624,-77.7657
0.624156,-76.0633
0.624312,-74.2489
0.624468,-72.349
0.624624,-70.3211
0.62478,-68.2291
0.624936,-66.0251
0.625092,-63.709
0.625248,-61.1047
0.625404,-58.4737
0.62556,-55.6453
0.625716,-52.6354
0.625872,-49.4708
0.626028,-46.1994
0.626184,-42.8213
0.62634,-39.2991
0.626496,-35.5421
0.626652,-31.5823
0.626808,-27.5158
0.626964,-23.2838
0.62712,-18.9451
0.627276,-14.6118
0.627432,-10.257
0.627588,-5.929
0.627744,-1.6063
0.6279,2.7377
0.628056,6.9803
0.628212,11.2176
0.628368,15.4229
0.628524,19.5642
0.62868,23.5987
0.628836,27.5158
0.628992,31.2514
0.629148,34.859
0.629304,38.3439
0.62946,41.738
0.629616,45.0414
0.629772,48.2006
0.629928,51.3653
0.630084,54.4179
0.63024,57.3744
0.630396,60.2561
0.630552,62.9191
0.630708,65.4967
0.630864,68.0477
0.63102,70.5399
0.631176,72.9414
0.631332,75.1721
0.631488,77.2214
0.631644,79.1532
0.6318,80.8396
0.631956,82.2378
0.632112,83.4653
0.632268,84.3992
0.632424,85.0289
0.63258,85.3438
0.632736,85.4025
0.632892,85.253
0.633048,84.8741
0.633204,84.2978
0.63336,83.4919
0.633516,82.4566
0.633672,81.1598
0.633828,79.5268
0.633984,77.8831
0.63414,76.2021
0.634296,74.4303
0.634452,72.5038
0.634608,70.4705
0.634764,68.3785
0.63492,66.1905
0.635076,63.8264
0.635232,61.1527
0.635388,58.4684
0.635544,55.6079
0.6357,52.5607
0.635856,49.3587
0.636012,46.066
0.636168,42.6932
0.636324,39.2137
0.63648,35.4994
0.636636,31.625
0.636792,27.6279
0.636948,23.4759
0.637104,19.2066
0.63726,14.932
0.637416,10.6466
0.637572,6.356
0.637728,2.0866
0.637884,-2.2361
0.63804,-6.5
0.638196,-10.7373
0.638352,-14.9586
0.638508,-19.0999
0.638664,-23.2038
0.63882,-27.1902
0.638976,-30.9953
0.639132,-34.6402
0.639288,-38.1838
0.639444,-41.6419
0.6396,-44.972
0.639756,-48.158
0.639912,-51.3706
0.640068,-54.4392
0.640224,-57.4117
0.64038,-60.2882
0.640536,-62.9138
0.640692,-65.4807
0.640848,-68.021
0.641004,-70.5079
0.64116,-72.8827
0.641316,-75.092
0.641472,-77.1467
0.641628,-79.0572
0.641784,-80.7702
0.64194,-82.2218
0.642096,-83.4706
0.642252,-84.4472
0.642408,-85.0876
0.642564,-85.4131
0.64272,-85.4932
0.642876,-85.3864
0.643032,-85.0236
0.643188,-84.4365
0.643344,-83.6093
0.6435,-82.558
0.643656,-81.2345
0.643812,-79.5695
0.643968,-77.8724
0.644124,-76.1647
0.64428,-74.3769
0.644436,-72.4824
0.644592,-70.4758
0.644748,-68.3999
0.644904,-66.2119
0.64506,-63.8904
0.645216,-61.3288
0.645372,-58.6872
0.645528,-55.8801
0.645684,-52.8969
0.64584,-49.7536
0.645996,-46.4929
0.646152,-43.1362
0.646308,-39.6033
0.646464,-35.8463
0.64662,-31.9132
0.646776,-27.8467
0.646932,-23.636
0.647088,-19.3027
0.647244,-14.948
0.6474,-10.5772
0.647556,-6.2225
0.647712,-1.8892
0.647868,2.4655
0.648024,6.7188
0.64818,10.9615
0.648336,15.1721
0.648492,19.308
0.648648,23.3479
0.648804,27.265
0.64896,31.006
0.649116,34.6029
0.649272,38.0824
0.649428,41.4765
0.649584,44.7425
0.64974,47.9392
0.649896,51.0878
0.650052,54.1137
0.650208,57.0862
0.650364,59.9786
0.65052,62.6737
0.650676,65.2673
0.650832,67.8289
0.650988,70.3317
0.651144,72.7439
0.6513,74.98
0.651456,77.0826
0.651612,79.0198
0.651768,80.7329
0.651924,82.1524
0.65208,83.3905
0.652236,84.3405
0.652392,84.9755
0.652548,85.2797
0.652704,85.3438
0.65286,85.2157
0.653016,84.8474
0.653172,84.2818
0.653328,83.4813
0.653484,82.462
0.65364,81.1865
0.653796,79.5695
0.653952,77.8991
0.654108,76.2448
0.654264,74.4943
0.65442,72.6105
0.654576,70.5932
0.654732,68.5173
0.654888,66.3399
0.655044,64.0025
0.6552,61.3502
0.655356,58.6925
0.655512,55.8481
0.655668,52.8222
0.655824,49.6522
0.65598,46.3542
0.656136,43.0028
0.656292,39.5339
0.656448,35.8303
0.656604,31.9612
0.65676,27.9801
0.656916,23.8602
0.657072,19.5802
0.657228,15.3002
0.657384,11.0149
0.65754,6.7349
0.657696,2.4549
0.657852,-1.8678
0.658008,-6.1425
0.658164,-10.3745
0.65832,-14.6224
0.658476,-18.7743
0.658632,-22.9049
0.658788,-26.8754
0.658944,-30.6804
0.6591,-34.336
0.659256,-37.9009
0.659412,-41.3537
0.659568,-44.7051
0.659724,-47.8911
0.65988,-51.1038
0.660036,-54.1777
0.660192,-57.1342
0.660348,-60.0107
0.660504,-62.663
0.66066,-65.2352
0.660816,-67.7915
0.660972,-70.2677
0.661128,-72.6585
0.661284,-74.8999
0.66144,-76.9652
0.661596,-78.8811
0.661752,-80.6315
0.661908,-82.1258
0.662064,-83.4119
0.66222,-84.4045
0.662376,-85.0876
0.662532,-85.4345
0.662688,-85.5412
0.662844,-85.4452
0.663,-85.0983
0.663156,-84.5486
0.663312,-83.7588
0.663468,-82.7288
0.663624,-81.4106
0.66378,-79.7403
0.663936,-78.0539
0.664092,-76.3515
0.664248,-74.5584
0.664404,-72.6745
0.66456,-70.6626
0.664716,-68.592
0.664872,-66.42
0.665028,-64.1145
0.665184,-61.5476
0.66534,-58.906
0.665496,-56.1202
0.665652,-53.1531
0.665808,-50.0204
0.665964,-46.7491
0.66612,-43.3923
0.666276,-39.8968
0.666432,-36.1718
0.666588,-32.2494
0.666744,-28.1989
0.6669,-23.9989
0.667056,-19.6656
0.667212,-15.3162
0.667368,-10.9455
0.667524,-6.5961
0.66768,-2.2627
0.667836,2.0813
0.667992,6.3453
0.668148,10.5612
0.668304,14.7879
0.66846,18.9558
0.668616,23.033
0.668772,26.9821
0.668928,30.7605
0.669084,34.3574
0.66924,37.8636
0.669396,41.2737
0.669552,44.5984
0.669708,47.7577
0.669864,50.933
0.67002,53.9696
0.670176,56.9368
0.670332,59.8292
0.670488,62.5136
0.670644,65.0858
0.6708,67.6421
0.670956,70.1503
0.671112,72.5625
0.671268,74.8092
0.671424,76.8905
0.67158,78.8277
0.671736,80.5568
0.671892,81.9977
0.672048,83.2838
0.672204,84.2818
0.67236,84.9649
0.672516,85.3117
0.672672,85.4185
0.672828,85.3171
0.672984,84.9702
0.67314,84.4205
0.673296,83.6467
0.673452,82.6487
0.673608,81.4
0.673764,79.7936
0.67392,78.1339
0.674076,76.4689
0.674232,74.7078
0.674388,72.808
0.674544,70.78
0.6747,68.6987
0.674856,66.5214
0.675012,64.1839
0.675168,61.5423
0.675324,58.874
0.67548,56.0402
0.675636,53.0143
0.675792,49.8497
0.675948,46.573
0.676104,43.2216
0.67626,39.7581
0.676416,36.0704
0.676572,32.212
0.676728,28.2309
0.676884,24.1003
0.67704,19.847
0.677196,15.5563
0.677352,11.2603
0.677508,6.9697
0.677664,2.7003
0.67782,-1.617
0.677976,-5.8863
0.678132,-10.1076
0.678288,-14.3449
0.678444,-18.5075
0.6786,-22.6167
0.678756,-26.5979
0.678912,-30.4082
0.679068,-34.0639
0.679224,-37.6181
0.67938,-41.0655
0.679536,-44.417
0.679692,-47.6296
0.679848,-50.853
0.680004,-53.9162
0.68016,-56.8941
0.680316,-59.7865
0.680472,-62.4602
0.680628,-65.0378
0.680784,-67.594
0.68094,-70.1076
0.681096,-72.5038
0.681252,-74.7452
0.681408,-76.8211
0.681564,-78.7637
0.68172,-80.5301
0.681876,-82.0083
0.682032,-83.3052
0.682188,-84.3405
0.682344,-85.0342
0.6825,-85.3971
0.682656,-85.5145
0.682812,-85.4291
0.682968,-85.1089
0.683124,-84.5539
0.68328,-83.7694
0.683436,-82.7501
0.683592,-81.48
0.683748,-79.8523
0.683904,-78.1499
0.68406,-76.4422
0.684216,-74.6598
0.684372,-72.7759
0.684528,-70.7854
0.684684,-68.7361
0.68484,-66.5587
0.684996,-64.2907
0.685152,-61.7557
0.685308,-59.0981
0.685464,-56.3337
0.68562,-53.3719
0.685776,-50.2713
0.685932,-47.0266
0.686088,-43.6698
0.686244,-40.1957
0.6864,-36.46
0.686556,-32.5482
0.686712,-28.5084
0.686868,-24.3298
0.687024,-19.9964
0.68718,-15.6311
0.687336,-11.2657
0.687492,-6.911
0.687648,-2.5723
0.687804,1.7664
0.68796,6.0518
0.688116,10.2731
0.688272,14.4997
0.688428,18.6729
0.688584,22.7395
0.68874,26.6726
0.688896,30.4189
0.689052,34.0212
0.689208,37.5273
0.689364,40.9428
0.68952,44.2622
0.689676,47.4162
0.689832,50.5968
0.689988,53.6494
0.690144,56.6166
0.6903,59.5144
0.690456,62.2414
0.690612,64.835
0.690768,67.4126
0.690924,69.9368
0.69108,72.3757
0.691236,74.6491
0.691392,76.7571
0.691548,78.7423
0.691704,80.4927
0.69186,81.9443
0.692016,83.2465
0.692172,84.2391
0.692328,84.9435
0.692484,85.3011
0.69264,85.4185
0.692796,85.3277
0.692952,84.9969
0.693108,84.4419
0.693264,83.6841
0.69342,82.7075
0.693576,81.4854
0.693732,79.9057
0.693888,78.2353
0.694044,76.5703
0.6942,74.8466
0.694356,72.9681
0.694512,70.9508
0.694668,68.8802
0.694824,66.7188
0.69498,64.4241
0.695136,61.8251
0.695292,59.1194
0.695448,56.3177
0.695604,53.3078
0.69576,50.1485
0.695916,46.8718
0.696072,43.5257
0.696228,40.0516
0.696384,36.4066
0.69654,32.5376
0.696696,28.5778
0.696852,24.4686
0.697008,20.2099
0.697164,15.9299
0.69732,11.6553
0.697476,7.3646
0.697632,3.1059
0.697788,-1.1954
0.697944,-5.4914
0.6981,-9.7234
0.698256,-13.9714
0.698412,-18.1393
0.698568,-22.2645
0.698724,-26.283
0.69888,-30.1147
0.699036,-33.7917
0.699192,-37.3619
0.699348,-40.8361
0.699504,-44.2248
0.69966,-47.4322
0.699816,-50.6128
0.699972,-53.7241
0.700128,-56.6966
0.700284,-59.5944
0.70044,-62.2734
0.700596,-64.8297
0.700752,-67.3806
0.700908,-69.8728
0.701064,-72.2636
0.70122,-74.5264
0.701376,-76.629
0.701532,-78.5876
0.701688,-80.3647
0.701844,-81.8749
0.702,-83.1984
0.702156,-84.2604
0.702312,-84.9915
0.702468,-85.3811
0.702624,-85.5359
0.70278,-85.4932
0.702936,-85.1837
0.703092,-84.634
0.703248,-83.8708
0.703404,-82.8782
0.70356,-81.6294
0.703716,-80.0124
0.703872,-78.294
0.704028,-76.6023
0.704184,-74.8145
0.70434,-72.952
0.704496,-70.9775
0.704652,-68.9282
0.704808,-66.7509
0.704964,-64.4774
0.70512,-61.9799
0.705276,-59.3222
0.705432,-56.5845
0.705588,-53.6334
0.705744,-50.5328
0.7059,-47.2827
0.706056,-43.942
0.706212,-40.4465
0.706368,-36.7642
0.706524,-32.8631
0.70668,-28.8446
0.706836,-24.6767
0.706992,-20.3647
0.707148,-16.01
0.707304,-11.6606
0.70746,-7.3219
0.707616,-2.9939
0.707772,1.3235
0.707928,5.6195
0.708084,9.8194
0.70824,14.0621
0.708396,18.246
0.708552,22.3232
0.708708,26.2884
0.708864,30.0774
0.70902,33.7063
0.709176,37.2125
0.709332,40.6439
0.709488,43.9954
0.709644,47.1867
0.7098,50.3567
0.709956,53.4359
0.710112,56.4084
0.710268,59.3222
0.710424,62.0599
0.71058,64.6482
0.710736,67.2098
0.710892,69.734
0.711048,72.1836
0.711204,74.4623
0.71136,76.5703
0.711516,78.5502
0.711672,80.322
0.711828,81.8002
0.711984,83.1077
0.71214,84.143
0.712296,84.8901
0.712452,85.2904
0.712608,85.4185
0.712764,85.3331
0.71292,85.0236
0.713076,84.5059
0.713232,83.7748
0.713388,82.8088
0.713544,81.6134
0.7137,80.0658
0.713856,78.4008
0.714012,76.7517
0.714168,74.996
0.714324,73.1335
0.71448,71.1269
0.714636,69.0509
0.714792,66.911
0.714948,64.6269
0.715104,62.0493
0.71526,59.3276
0.715416,56.5578
0.715572,53.564
0.715728,50.4154
0.715884,47.144
0.71604,43.8086
0.716196,40.3718
0.716352,36.7002
0.716508,32.8684
0.716664,28.9086
0.71682,24.8314
0.716976,20.5781
0.717132,16.2928
0.717288,12.0235
0.717444,7.7328
0.7176,3.4582
0.717756,-0.8432
0.717912,-5.1445
0.718068,-9.3605
0.718224,-13.5925
0.71838,-17.7497
0.718536,-21.8856
0.718692,-25.9041
0.718848,-29.7625
0.719004,-33.4341
0.71916,-37.015
0.719316,-40.4999
0.719472,-43.894
0.719628,-47.1066
0.719784,-50.3193
0.71994,-53.4412
0.720096,-56.4351
0.720252,-59.3543
0.720408,-62.0653
0.720564,-64.6429
0.72072,-67.2045
0.720876,-69.7127
0.721032,-72.1142
0.721188,-74.3929
0.721344,-76.4902
0.7215,-78.4541
0.721656,-80.2526
0.721812,-81.7789
0.721968,-83.113
0.722124,-84.1964
0.72228,-84.9542
0.722436,-85.3758
0.722592,-85.5305
0.722748,-85.4825
0.722904,-85.1943
0.72306,-84.6873
0.723216,-83.9455
0.723372,-82.9689
0.723528,-81.7468
0.723684,-80.1512
0.72384,-78.4488
0.723996,-76.7517
0.724152,-74.98
0.724308,-73.1228
0.724464,-71.1536
0.72462,-69.099
0.724776,-66.9537
0.724932,-64.7016
0.725088,-62.2414
0.725244,-59.5944
0.7254,-56.846
0.725556,-53.9162
0.725712,-50.8263
0.725868,-47.5923
0.726024,-44.2515
0.72618,-40.7934
0.726336,-37.1111
0.726492,-33.21
0.726648,-29.1808
0.726804,-25.0182
0.72696,-20.6902
0.727116,-16.3515
0.727272,-11.9915
0.727428,-7.6314
0.727584,-3.3034
0.72774,1.0246
0.727896,5.3367
0.728052,9.5366
0.728208,13.7952
0.728364,17.9738
0.72852,22.0511
0.728676,26.0162
0.728832,29.8105
0.728988,33.4448
0.729144,36.9723
0.7293,40.4198
0.729456,43.7712
0.729612,46.9465
0.729768,50.1432
0.729924,53.2118
0.73008,56.2003
0.730236,59.1194
0.730392,61.8838
0.730548,64.4721
0.730704,67.039
0.73086,69.5633
0.731016,72.0075
0.731172,74.3076
0.731328,76.4422
0.731484,78.4435
0.73164,80.2152
0.731796,81.7148
0.731952,83.0383
0.732108,84.1003
0.732264,84.8368
0.73242,85.2477
0.732576,85.3971
0.732732,85.3544
0.732888,85.0662
0.733044,84.5486
0.7332,83.8335
0.733356,82.8729
0.733512,81.6988
0.733668,80.1939
0.733824,78.5182
0.73398,76.8691
0.734136,75.1401
0.734292,73.2776
0.734448,71.2924
0.734604,69.2377
0.73476,67.1031
0.734916,64.8403
0.735072,62.3054
0.735228,59.5784
0.735384,56.83
0.73554,53.8522
0.735696,50.7142
0.735852,47.4535
0.736008,44.1128
0.736164,40.6439
0.73632,37.0364
0.736476,33.1833
0.736632,29.2288
0.736788,25.1356
0.736944,20.8877
0.7371,16.6023
0.737256,12.3117
0.737412,8.037
0.737568,3.757
0.737724,-0.5497
0.73788,-4.8457
0.738036,-9.051
0.738192,-13.2936
0.738348,-17.4669
0.738504,-21.6028
0.73866,-25.6159
0.738816,-29.4637
0.738972,-33.1406
0.739128,-36.7322
0.739284,-40.2224
0.73944,-43.6111
0.739596,-46.8665
0.739752,-50.0525
0.739908,-53.2064
0.740064,-56.2003
0.74022,-59.1301
0.740376,-61.8732
0.740532,-64.4454
0.740688,-67.0017
0.740844,-69.5206
0.741,-71.9488
0.741156,-74.2489
0.741312,-76.3675
0.741468,-78.3474
0.741624,-80.1352
0.74178,-81.6881
0.741936,-83.0383
0.742092,-84.1377
0.742248,-84.9062
0.742404,-85.3491
0.74256,-85.5199
0.742716,-85.4985
0.742872,-85.2317
0.743028,-84.73
0.743184,-84.0149
0.74334,-83.065
0.743496,-81.8536
0.743652,-80.3006
0.743808,-78.6036
0.743964,-76.9225
0.74412,-75.1721
0.744276,-73.3203
0.744432,-71.335
0.744588,-69.2911
0.744744,-67.1618
0.7449,-64.9204
0.745056,-62.4602
0.745212,-59.7919
0.745368,-57.0755
0.745524,-54.1724
0.74568,-51.0771
0.745836,-47.8324
0.745992,-44.5023
0.746148,-41.0442
0.746304,-37.3886
0.74646,-33.5088
0.746616,-29.4957
0.746772,-25.3491
0.746928,-21.0264
0.747084,-16.6664
0.74724,-12.301
0.747396,-7.9356
0.747552,-3.6129
0.747708,0.7151
0.747864,5.0538
0.74802,9.2377
0.748176,13.4804
0.748332,17.6643
0.748488,21.7629
0.748644,25.744
0.7488,29.5544
0.748956,33.1833
0.749112,36.7055
0.749268,40.1476
0.749424,43.5097
0.74958,46.7064
0.749736,49.871
0.749892,52.9556
0.750048,55.9495
0.750204,58.8846
0.75036,61.6757
0.750516,64.28
0.750672,66.8469
0.750828,69.3765
0.750984,71.826
0.75114,74.1421
0.751296,76.2768
0.751452,78.2887
0.751608,80.0818
0.751764,81.6081
0.75192,82.9476
0.752076,84.0309
0.752232,84.7887
0.752388,85.221
0.752544,85.3918
0.7527,85.3491
0.752856,85.0662
0.753012,84.5753
0.753168,83.8868
0.753324,82.9636
0.75348,81.8002
0.753636,80.3166
0.753792,78.6356
0.753948,76.9812
0.754104,75.2682
0.75426,73.4323
0.754416,71.4418
0.754572,69.3765
0.754728,67.2525
0.754884,65.0058
0.75504,62.4869
0.755196,59.7598
0.755352,57.0061
0.755508,54.0336
0.755664,50.917
0.75582,47.6777
0.755976,44.3476
0.756132,40.9321
0.756288,37.2925
0.756444,33.4715
0.7566,29.533
0.756756,25.4665
0.756912,21.2292
0.757068,16.9492
0.757224,12.6479
0.75738,8.3465
0.757536,4.0665
0.757692,-0.2135
0.757848,-4.5255
0.758004,-8.7361
0.75816,-12.9894
0.758316,-17.1733
0.758472,-21.3039
0.758628,-25.3384
0.758784,-29.2128
0.75894,-32.8898
0.759096,-36.4654
0.759252,-39.9502
0.759408,-43.339
0.759564,-46.5836
0.75972,-49.791
0.759876,-52.9343
0.760032,-55.9281
0.760188,-58.8793
0.760344,-61.6437
0.7605,-64.2266
0.760656,-66.7935
0.760812,-69.3124
0.760968,-71.746
0.761124,-74.0567
0.76128,-76.1754
0.761436,-78.1606
0.761592,-79.9858
0.761748,-81.5814
0.761904,-82.9263
0.76206,-84.0523
0.762216,-84.8581
0.762372,-85.3277
0.762528,-85.4985
0.762684,-85.4772
0.76284,-85.2263
0.762996,-84.7674
0.763152,-84.079
0.763308,-83.129
0.763464,-81.9657
0.76362,-80.4447
0.763776,-78.7477
0.763932,-77.0559
0.764088,-75.2948
0.764244,-73.4537
0.7644,-71.4951
0.764556,-69.4672
0.764712,-67.3432
0.764868,-65.1072
0.765024,-62.679
0.76518,-60.0267
0.765336,-57.3103
0.765492,-54.4072
0.765648,-51.3173
0.765804,-48.0939
0.76596,-44.7638
0.766116,-41.2897
0.766272,-37.6661
0.766428,-33.797
0.766584,-29.7945
0.76674,-25.6693
0.766896,-21.3573
0.767052,-17.0186
0.767208,-12.6532
0.767364,-8.2932
0.76752,-3.9438
0.767676,0.3736
0.767832,4.6856
0.767988,8.8588
0.768144,13.1015
0.7683,17.2854
0.768456,21.4053
0.768612,25.4131
0.768768,29.2449
0.768924,32.9005
0.76908,36.4387
0.769236,39.8808
0.769392,43.2376
0.769548,46.4769
0.769704,49.6255
0.76986,52.7688
0.770016,55.7467
0.770172,58.6925
0.770328,61.4996
0.770484,64.1039
0.77064,66.6761
0.770796,69.2111
0.770952,71.6606
0.771108,73.9874
0.771264,76.122
0.77142,78.1499
0.771576,79.9591
0.771732,81.512
0.771888,82.8569
0.772044,83.9722
0.7722,84.7621
0.772356,85.2317
0.772512,85.4078
0.772668,85.3864
0.772824,85.1303
0.77298,84.6447
0.773136,83.9616
0.773292,83.065
0.773448,81.9283
0.773604,80.4767
0.77376,78.801
0.773916,77.1306
0.774072,75.4122
0.774228,73.5764
0.774384,71.5912
0.77454,69.5366
0.774696,67.4179
0.774852,65.1872
0.775008,62.7057
0.775164,59.9733
0.77532,57.2143
0.775476,54.2738
0.775632,51.1625
0.775788,47.9392
0.775944,44.6144
0.7761,41.1669
0.776256,37.586
0.776412,33.7597
0.776568,29.8159
0.776724,25.7547
0.77688,21.5281
0.777036,17.2427
0.777192,12.9521
0.777348,8.6614
0.777504,4.3761
0.77766,0.08
0.777816,-4.232
0.777972,-8.4586
0.778128,-12.6852
0.778284,-16.8425
0.77844,-20.9784
0.778596,-25.0129
0.778752,-28.8873
0.778908,-32.5749
0.779064,-36.1558
0.77922,-39.6567
0.779376,-43.0561
0.779532,-46.3328
0.779688,-49.5081
0.779844,-52.6834
0.78,-55.6986
0.780156,-58.6552
0.780312,-61.4462
0.780468,-64.0345
0.780624,-66.6068
0.78078,-69.1363
0.780936,-71.5912
0.781092,-73.9286
0.781248,-76.074
0.781404,-78.0592
0.78156,-79.8897
0.781716,-81.4693
0.781872,-82.8088
0.782028,-83.9509
0.782184,-84.7781
0.78234,-85.2584
0.782496,-85.4505
0.782652,-85.4558
0.782808,-85.2263
0.782964,-84.7407
0.78312,-84.0576
0.783276,-83.1397
0.783432,-81.9817
0.783588,-80.5194
0.783744,-78.8224
0.7839,-77.1253
0.784056,-75.3856
0.784212,-73.5604
0.784368,-71.6232
0.784524,-69.59
0.78468,-67.4606
0.784836,-65.2513
0.784992,-62.8604
0.785148,-60.2135
0.785304,-57.5024
0.78546,-54.6206
0.785616,-51.5734
0.785772,-48.3607
0.785928,-45.036
0.786084,-41.5832
0.78624,-37.9756
0.786396,-34.1226
0.786552,-30.1361
0.786708,-26.0215
0.786864,-21.7415
0.78702,-17.4082
0.787176,-13.0374
0.787332,-8.6881
0.787488,-4.36
0.787644,-0.0374
0.7878,4.2747
0.787956,8.4693
0.788112,12.7279
0.788268,16.8958
0.788424,21.0051
0.78858,24.9969
0.788736,28.8446
0.788892,32.5109
0.789048,36.0651
0.789204,39.5233
0.78936,42.896
0.789516,46.1247
0.789672,49.3053
0.789828,52.4273
0.789984,55.4318
0.79014,58.383
0.790296,61.2114
0.790452,63.837
0.790608,66.4146
0.790764,68.9549
0.79092,71.4151
0.791076,73.7739
0.791232,75.9299
0.791388,77.9632
0.791544,79.8203
0.7917,81.416
0.791856,82.7395
0.792012,83.8655
0.792168,84.682
0.792324,85.1837
0.79248,85.3864
0.792636,85.3651
0.792792,85.125
0.792948,84.666
0.793104,84.0096
0.79326,83.1077
0.793416,81.9923
0.793572,80.5941
0.793728,78.9238
0.793884,77.2587
0.79404,75.551
0.794196,73.7472
0.794352,71.794
0.794508,69.7554
0.794664,67.6367
0.79482,65.4167
0.794976,62.9832
0.795132,60.2615
0.795288,57.5131
0.795444,54.5886
0.7956,51.488
0.795756,48.2594
0.795912,44.9293
0.796068,41.4871
0.796224,37.9276
0.79638,34.1386
0.796536,30.2108
0.796692,26.1603
0.796848,21.9283
0.797004,17.659
0.79716,13.379
0.797316,9.0883
0.797472,4.8083
0.797628,0.5337
0.797784,-3.773
0.79794,-7.9996
0.798096,-12.253
0.798252,-16.4476
0.798408,-20.5888
0.798564,-24.634
0.79872,-28.5244
0.798876,-32.2547
0.799032,-35.8623
0.799188,-39.3792
0.799344,-42.8053
0.7995,-46.114
0.799656,-49.2787
0.799812,-52.4806
0.799968,-55.4905
0.800124,-58.4364
0.80028,-61.2594
0.800436,-63.8531
0.800592,-66.42
0.800748,-68.9389
0.800904,-71.3937
0.80106,-73.7312
0.801216,-75.8712
0.801372,-77.8778
0.801528,-79.7189
0.801684,-81.3519
0.80184,-82.7075
0.801996,-83.8762
0.802152,-84.7247
0.802308,-85.2317
0.802464,-85.4665
0.80262,-85.4878
0.802776,-85.2744
0.802932,-84.8368
0.803088,-84.175
0.803244,-83.2678
0.8034,-82.1204
0.803556,-80.6528
0.803712,-78.9611
0.803868,-77.2801
0.804024,-75.5403
0.80418,-73.7205
0.804336,-71.778
0.804492,-69.7554
0.804648,-67.6421
0.804804,-65.4274
0.80496,-63.0365
0.805116,-60.4162
0.805272,-57.7266
0.805428,-54.8661
0.805584,-51.8242
0.80574,-48.6222
0.805896,-45.3242
0.806052,-41.8874
0.806208,-38.2798
0.806364,-34.4428
0.80652,-30.4616
0.806676,-26.3471
0.806832,-22.0617
0.806988,-17.691
0.807144,-13.3256
0.8073,-8.9656
0.807456,-4.6376
0.807612,-0.2935
0.807768,4.0398
0.807924,8.2398
0.80808,12.4824
0.808236,16.6717
0.808392,20.7756
0.808548,24.7674
0.808704,28.5938
0.80886,32.2494
0.809016,35.7823
0.809172,39.2457
0.809328,42.6132
0.809484,45.8632
0.80964,49.0492
0.809796,52.1765
0.809952,55.181
0.810108,58.1322
0.810264,60.9873
0.81042,63.6396
0.810576,66.2172
0.810732,68.7734
0.810888,71.255
0.811044,73.6191
0.8112,75.8018
0.811356,77.8511
0.811512,79.7029
0.811668,81.3253
0.811824,82.6434
0.81198,83.7801
0.812136,84.6126
0.812292,85.1036
0.812448,85.3117
0.812604,85.3171
0.81276,85.1036
0.812916,84.6553
0.813072,83.9936
0.813228,83.113
0.813384,82.0083
0.81354,80.6315
0.813696,78.9504
0.813852,77.2907
0.814008,75.6097
0.814164,73.8379
0.81432,71.9061
0.814476,69.8781
0.814632,67.7808
0.814788,65.5768
0.814944,63.1753
0.8151,60.4643
0.815256,57.7319
0.815412,54.8288
0.815568,51.7442
0.815724,48.5262
0.81588,45.2121
0.816036,41.7913
0.816192,38.2318
0.816348,34.4321
0.816504,30.5096
0.81666,26.4805
0.816816,22.2645
0.816972,17.9845
0.817128,13.6832
0.817284,9.3925
0.81744,5.1179
0.817596,0.8485
0.817752,-3.4528
0.817908,-7.6688
0.818064,-11.9221
0.81822,-16.1327
0.818376,-20.2526
0.818532,-24.3085
0.818688,-28.2095
0.818844,-31.9345
0.819,-35.5368
0.819156,-39.059
0.819312,-42.4798
0.819468,-45.7992
0.819624,-48.9958
0.81978,-52.1871
0.819936,-55.197
0.820092,-58.1535
0.820248,-60.9873
0.820404,-63.5969
0.82056,-66.1798
0.820716,-68.7147
0.820872,-71.1803
0.821028,-73.5284
0.821184,-75.6898
0.82134,-77.7123
0.821496,-79.5855
0.821652,-81.2559
0.821808,-82.6221
0.821964,-83.7908
0.82212,-84.6767
0.822276,-85.221
0.822432,-85.4558
0.822588,-85.4878
0.822744,-85.3064
0.8229,-84.8848
0.823056,-84.2444
0.823212,-83.3478
0.823368,-82.2325
0.823524,-80.8076
0.82368,-79.1052
0.823836,-77.4135
0.823992,-75.6844
0.824148,-73.886
0.824304,-71.9648
0.82446,-69.9529
0.824616,-67.8609
0.824772,-65.6622
0.824928,-63.2874
0.825084,-60.6724
0.82524,-58.0094
0.825396,-55.1383
0.825552,-52.1124
0.825708,-48.9211
0.825864,-45.6284
0.82602,-42.1916
0.826176,-38.6267
0.826332,-34.7896
0.826488,-30.8138
0.826644,-26.7046
0.8268,-22.4246
0.826956,-18.0806
0.827112,-13.7205
0.827268,-9.3605
0.827424,-5.0165
0.82758,-0.6991
0.827736,3.6289
0.827892,7.8289
0.828048,12.0715
0.828204,16.2928
0.82836,20.4234
0.828516,24.4312
0.828672,28.2949
0.828828,31.9719
0.828984,35.5208
0.82914,39.0003
0.829296,42.3784
0.829452,45.6337
0.829608,48.8357
0.829764,51.9737
0.82992,54.9782
0.830076,57.9187
0.830232,60.7631
0.830388,63.4154
0.830544,65.9877
0.8307,68.5386
0.830856,71.0202
0.831012,73.4003
0.831168,75.583
0.831324,77.6483
0.83148,79.5321
0.831636,81.1812
0.831792,82.542
0.831948,83.7054
0.832104,84.5699
0.83226,85.1143
0.832416,85.3704
0.832572,85.3971
0.832728,85.189
0.832884,84.7674
0.83304,84.1377
0.833196,83.2785
0.833352,82.2058
0.833508,80.8289
0.833664,79.1586
0.83382,77.5095
0.833976,75.8338
0.834132,74.0461
0.834288,72.1089
0.834444,70.0703
0.8346,67.9676
0.834756,65.7689
0.834912,63.3567
0.835068,60.6724
0.835224,57.9667
0.83538,55.0636
0.835536,52.0057
0.835692,48.7877
0.835848,45.4629
0.836004,42.0582
0.83616,38.5146
0.836316,34.7256
0.836472,30.8085
0.836628,26.7847
0.836784,22.5847
0.83694,18.2887
0.837096,13.998
0.837252,9.686
0.837408,5.4114
0.837564,1.1367
0.83772,-3.1753
0.837876,-7.4073
0.838032,-11.6179
0.838188,-15.7965
0.838344,-19.9537
0.8385,-23.9936
0.838656,-27.9054
0.838812,-31.6197
0.838968,-35.2272
0.839124,-38.7494
0.83928,-42.1862
0.839436,-45.4736
0.839592,-48.7023
0.839748,-51.8883
0.839904,-54.9462
0.84006,-57.9134
0.840216,-60.7685
0.840372,-63.3994
0.840528,-65.9824
0.840684,-68.5226
0.84084,-70.9935
0.840996,-73.3416
0.841152,-75.519
0.841308,-77.5522
0.841464,-79.4307
0.84162,-81.1065
0.841776,-82.4886
0.841932,-83.6787
0.842088,-84.586
0.842244,-85.1356
0.8424,-85.4025
0.842556,-85.4612
0.842712,-85.2957
0.842868,-84.8741
0.843024,-84.2497
0.84318,-83.3852
0.843336,-82.2912
0.843492,-80.8983
0.843648,-79.2066
0.843804,-77.5149
0.84396,-75.7965
0.844116,-74.0087
0.844272,-72.0928
0.844428,-70.0916
0.844584,-68.005
0.84474,-65.8169
0.844896,-63.4635
0.845052,-60.8645
0.845208,-58.2229
0.845364,-55.3784
0.84552,-52.3686
0.845676,-49.1879
0.845832,-45.8952
0.845988,-42.4691
0.846144,-38.9149
0.8463,-35.0938
0.846456,-31.102
0.846612,-27.0088
0.846768,-22.7608
0.846924,-18.4168
0.84708,-14.0514
0.847236,-9.6754
0.847392,-5.3206
0.847548,-1.0033
0.847704,3.3194
0.84786,7.5087
0.848016,11.7193
0.848172,15.8926
0.848328,20.0178
0.848484,24.0256
0.84864,27.9107
0.848796,31.609
0.848952,35.1632
0.849108,38.6427
0.849264,42.0261
0.84942,45.3189
0.849576,48.4728
0.849732,51.6428
0.849888,54.674
0.850044,57.6519
0.8502,60.5337
0.850356,63.202
0.850512,65.7903
0.850668,68.3465
0.850824,70.8441
0.85098,73.2189
0.851136,75.4069
0.851292,77.4669
0.851448,79.3667
0.851604,81.0264
0.85176,82.4086
0.851916,83.5987
0.852072,84.4899
0.852228,85.0396
0.852384,85.3011
0.85254,85.3438
0.852696,85.173
0.852852,84.7567
0.853008,84.1323
0.853164,83.2945
0.85332,82.2271
0.853476,80.909
0.853632,79.2706
0.853788,77.6003
0.853944,75.9192
0.8541,74.1528
0.854256,72.2476
0.854412,70.2197
0.854568,68.1491
0.854724,65.9557
0.85488,63.5809
0.855036,60.9019
0.855192,58.2122
0.855348,55.3197
0.855504,52.2565
0.85566,49.0492
0.855816,45.7351
0.855972,42.3357
0.856128,38.7975
0.856284,35.0405
0.85644,31.1073
0.856596,27.0782
0.856752,22.8996
0.856908,18.6356
0.857064,14.3609
0.85722,10.0863
0.857376,5.8223
0.857532,1.5476
0.857688,-2.727
0.857844,-6.9537
0.858,-11.1536
0.858156,-15.3215
0.858312,-19.4681
0.858468,-23.5453
0.858624,-27.4517
0.85878,-31.2194
0.858936,-34.8537
0.859092,-38.3812
0.859248,-41.8394
0.859404,-45.1748
0.85956,-48.4034
0.859716,-51.6161
0.859872,-54.674
0.860028,-57.6412
0.860184,-60.5123
0.86034,-63.1433
0.860496,-65.7155
0.860652,-68.2558
0.860808,-70.732
0.860964,-73.1121
0.86112,-75.2948
0.861276,-77.3441
0.861432,-79.2386
0.861588,-80.9357
0.861744,-82.3392
0.8619,-83.556
0.862056,-84.5166
0.862212,-85.1196
0.862368,-85.4078
0.862524,-85.4772
0.86268,-85.3438
0.862836,-84.9488
0.862992,-84.3458
0.863148,-83.5026
0.863304,-82.4139
0.86346,-81.0478
0.863616,-79.3667
0.863772,-77.675
0.863928,-75.9619
0.864084,-74.1795
0.86424,-72.2743
0.864396,-70.273
0.864552,-68.2024
0.864708,-66.0197
0.864864,-63.693
0.86502,-61.0833
0.865176,-58.4737
0.865332,-55.6613
0.865488,-52.6674
0.865644,-49.5028
0.8658,-46.2101
0.865956,-42.8106
0.866112,-39.2671
0.866268,-35.4727
0.866424,-31.4916
0.86658,-27.4144
0.866736,-23.1771
0.866892,-18.8224
0.867048,-14.4623
0.867204,-10.1023
0.86736,-5.7636
0.867516,-1.4516
0.867672,2.8925
0.867828,7.1138
0.867984,11.3297
0.86814,15.503
0.868296,19.6389
0.868452,23.6734
0.868608,27.5531
0.868764,31.2461
0.86892,34.827
0.869076,38.3225
0.869232,41.7273
0.869388,45.0093
0.869544,48.206
0.8697,51.376
0.869856,54.4232
0.870012,57.3904
0.870168,60.2775
0.870324,62.9725
0.87048,65.5608
0.870636,68.1117
0.870792,70.5986
0.870948,72.9947
0.871104,75.2094
0.87126,77.2854
0.871416,79.2066
0.871572,80.8876
0.871728,82.2698
0.871884,83.4866
0.87204,84.4045
0.872196,85.0022
0.872352,85.2904
0.872508,85.3651
0.872664,85.2103
0.87282,84.8101
0.872976,84.207
0.873132,83.3852
0.873288,82.3552
0.873444,81.0531
0.8736,79.4201
0.873756,77.7497
0.873912,76.09
0.874068,74.3236
0.874224,72.4291
0.87438,70.3904
0.874536,68.3198
0.874692,66.1532
0.874848,63.8264
0.875004,61.1367
0.87516,58.4844
0.875316,55.6239
0.875472,52.566
0.875628,49.3747
0.875784,46.0607
0.87594,42.6665
0.876096,39.155
0.876252,35.4194
0.876408,31.4969
0.876564,27.4678
0.87672,23.3052
0.876876,19.0145
0.877032,14.7345
0.877188,10.4385
0.877344,6.1585
0.8775,1.8945
0.877656,-2.3908
0.877812,-6.6121
0.877968,-10.8387
0.878124,-15.0173
0.87828,-19.1426
0.878436,-23.2465
0.878592,-27.1956
0.878748,-30.9846
0.878904,-34.6135
0.87906,-38.1571
0.879216,-41.6259
0.879372,-44.9826
0.879528,-48.1686
0.879684,-51.392
0.87984,-54.4659
0.879996,-57.4491
0.880152,-60.3415
0.880308,-62.9885
0.880464,-65.5608
0.88062,-68.1064
0.880776,-70.5772
0.880932,-72.936
0.881088,-75.1401
0.881244,-77.1893
0.8814,-79.1105
0.881556,-80.8289
0.881712,-82.2645
0.881868,-83.5186
0.882024,-84.4846
0.88218,-85.1036
0.882336,-85.4185
0.882492,-85.5145
0.882648,-85.3758
0.882804,-85.0022
0.88296,-84.4098
0.883116,-83.5933
0.883272,-82.5367
0.883428,-81.1918
0.883584,-79.5161
0.88374,-77.8298
0.883896,-76.1327
0.884052,-74.3449
0.884208,-72.4397
0.884364,-70.4438
0.88452,-68.3839
0.884676,-66.2119
0.884832,-63.9011
0.884988,-61.2968
0.885144,-58.6818
0.8853,-55.8801
0.885456,-52.8809
0.885612,-49.7163
0.885768,-46.4235
0.885924,-43.0401
0.88608,-39.5179
0.886236,-35.7289
0.886392,-31.7744
0.886548,-27.7186
0.886704,-23.4866
0.88686,-19.1266
0.887016,-14.7665
0.887172,-10.4118
0.887328,-6.0624
0.887484,-1.7397
0.88764,2.5616
0.887796,6.8096
0.887952,11.0149
0.888108,15.2255
0.888264,19.3934
0.88842,23.4439
0.888576,27.3397
0.888732,31.07
0.888888,34.6562
0.889044,38.1571
0.8892,41.5619
0.889356,44.8813
0.889512,48.0406
0.889668,51.2105
0.889824,54.2524
0.88998,57.1876
0.890136,60.0961
0.890292,62.8071
0.890448,65.3847
0.890604,67.9409
0.89076,70.4385
0.890916,72.8293
0.891072,75.06
0.891228,77.136
0.891384,79.0732
0.89154,80.7809
0.891696,82.2058
0.891852,83.4599
0.892008,84.3938
0.892164,85.0182
0.89232,85.3224
0.892476,85.3918
0.892632,85.2584
0.892788,84.8795
0.892944,84.3138
0.8931,83.5079
0.893256,82.478
0.893412,81.1865
0.893568,79.5642
0.893724,77.9045
0.89388,76.2288
0.894036,74.4837
0.894192,72.5945
0.894348,70.5666
0.894504,68.5013
0.89466,66.3186
0.894816,63.9705
0.894972,61.2915
0.895128,58.6231
0.895284,55.7734
0.89544,52.7208
0.895596,49.5401
0.895752,46.2368
0.895908,42.8587
0.896064,39.3525
0.89622,35.6275
0.896376,31.7317
0.896532,27.7453
0.896688,23.604
0.896844,19.3294
0.897,15.0547
0.897156,10.7534
0.897312,6.4787
0.897468,2.2147
0.897624,-2.0599
0.89778,-6.3293
0.897936,-10.5346
0.898092,-14.7292
0.898248,-18.9024
0.898404,-23.017
0.89856,-26.9768
0.898716,-30.7445
0.898872,-34.3787
0.899028,-37.9223
0.899184,-41.3804
0.89934,-44.7532
0.899496,-47.9445
0.899652,-51.1572
0.899808,-54.2364
0.899964,-57.2089
0.90012,-60.0907
0.900276,-62.7484
0.900432,-65.3366
0.900588,-67.8929
0.900744,-70.3798
0.9009,-72.7599
0.901056,-74.996
0.901212,-77.0506
0.901368,-78.9825
0.901524,-80.7275
0.90168,-82.1684
0.901836,-83.4386
0.901992,-84.4152
0.902148,-85.0716
0.902304,-85.4025
0.90246,-85.4985
0.902616,-85.3811
0.902772,-85.0236
0.902928,-84.4472
0.903084,-83.6307
0.90324,-82.59
0.903396,-81.2932
0.903552,-79.6389
0.903708,-77.9418
0.903864,-76.2501
0.90402,-74.4623
0.904176,-72.5892
0.904332,-70.6039
0.904488,-68.56
0.904644,-66.388
0.9048,-64.0879
0.904956,-61.5156
0.905112,-58.8793
0.905268,-56.0829
0.905424,-53.0997
0.90558,-49.9564
0.905736,-46.6797
0.905892,-43.2963
0.906048,-39.7794
0.906204,-36.0011
0.90636,-32.0573
0.906516,-27.9801
0.906672,-23.7801
0.906828,-19.4574
0.906984,-15.1187
0.90714,-10.7534
0.907296,-6.3933
0.907452,-2.0653
0.907608,2.2361
0.907764,6.4894
0.90792,10.6947
0.908076,14.8893
0.908232,19.0465
0.908388,23.1077
0.908544,27.0301
0.9087,30.7765
0.908856,34.352
0.909012,37.8369
0.909168,41.263
0.909324,44.5824
0.90948,47.7577
0.909636,50.9544
0.909792,53.9963
0.909948,56.9741
0.910104,59.8772
0.91026,62.5936
0.910416,65.1712
0.910572,67.7381
0.910728,70.257
0.910884,72.6585
0.91104,74.9053
0.911196,76.9972
0.911352,78.9504
0.911508,80.6635
0.911664,82.0724
0.91182,83.3478
0.911976,84.3084
0.912132,84.9595
0.912288,85.2637
0.912444,85.3544
0.9126,85.2317
0.912756,84.8741
0.912912,84.3138
0.913068,83.5186
0.913224,82.5047
0.91338,81.2612
0.913536,79.6762
0.913692,78.0059
0.913848,76.3462
0.914004,74.6117
0.91416,72.7226
0.914316,70.716
0.914472,68.6507
0.914628,66.5
0.914784,64.1839
0.91494,61.5263
0.915096,58.8526
0.915252,56.0242
0.915408,52.9983
0.915564,49.8443
0.91572,46.5623
0.915876,43.2002
0.916032,39.71
0.916188,35.9957
0.916344,32.1053
0.9165,28.0815
0.916656,23.9509
0.916812,19.6816
0.916968,15.4069
0.917124,11.1269
0.91728,6.8363
0.917436,2.5402
0.917592,-1.7611
0.917748,-6.0411
0.917904,-10.2464
0.91806,-14.4623
0.918216,-18.6089
0.918372,-22.7021
0.918528,-26.6619
0.918684,-30.4456
0.91884,-34.0905
0.918996,-37.6287
0.919152,-41.0816
0.919308,-44.4383
0.919464,-47.6403
0.91962,-50.8636
0.919776,-53.9696
0.919932,-56.9581
0.920088,-59.8666
0.920244,-62.5509
0.9204,-65.1339
0.920556,-67.6848
0.920712,-70.1717
0.920868,-72.5892
0.921024,-74.8412
0.92118,-76.9225
0.921336,-78.8544
0.921492,-80.5995
0.921648,-82.067
0.921804,-83.3372
0.92196,-84.3511
0.922116,-85.0182
0.922272,-85.3704
0.922428,-85.4772
0.922584,-85.3864
0.92274,-85.0396
0.922896,-84.5059
0.923052,-83.7267
0.923208,-82.7128
0.923364,-81.4373
0.92352,-79.799
0.923676,-78.1019
0.923832,-76.4155
0.923988,-74.6491
0.924144,-72.7813
0.9243,-70.78
0.924456,-68.7254
0.924612,-66.5641
0.924768,-64.2853
0.924924,-61.7344
0.92508,-59.0928
0.925236,-56.3284
0.925392,-53.3559
0.925548,-50.2072
0.925704,-46.9252
0.92586,-43.5578
0.926016,-40.0569
0.926172,-36.3426
0.926328,-32.3935
0.926484,-28.3483
0.92664,-24.159
0.926796,-19.815
0.926952,-15.4549
0.927108,-11.0896
0.927264,-6.7509
0.92742,-2.4389
0.927576,1.8732
0.927732,6.1425
0.927888,10.3531
0.928044,14.5691
0.9282,18.7423
0.928356,22.8195
0.928512,26.7473
0.928668,30.5096
0.928824,34.1012
0.92898,37.6074
0.929136,41.0282
0.929292,44.3743
0.929448,47.5442
0.929604,50.7142
0.92976,53.7935
0.929916,56.7606
0.930072,59.6745
0.930228,62.4122
0.930384,65.0004
0.93054,67.5567
0.930696,70.0596
0.930852,72.4771
0.931008,74.7345
0.931164,76.8371
0.93132,78.801
0.931476,80.5354
0.931632,81.9817
0.931788,83.2571
0.931944,84.2284
0.9321,84.9062
0.932256,85.253
0.932412,85.3544
0.932568,85.2424
0.932724,84.9115
0.93288,84.3618
0.933036,83.604
0.933192,82.6167
0.933348,81.3893
0.933504,79.831
0.93366,78.1553
0.933816,76.4796
0.933972,74.7505
0.934128,72.8987
0.934284,70.8921
0.93444,68.8322
0.934596,66.6708
0.934752,64.3494
0.934908,61.7291
0.935064,59.0394
0.93522,56.243
0.935376,53.2331
0.935532,50.0738
0.935688,46.7811
0.935844,43.419
0.936,39.9288
0.936156,36.2519
0.936312,32.3828
0.936468,28.3963
0.936624,24.2818
0.93678,20.0285
0.936936,15.7485
0.937092,11.4471
0.937248,7.1618
0.937404,2.8871
0.93756,-1.3822
0.937716,-5.6355
0.937872,-9.8301
0.938028,-14.0514
0.938184,-18.2193
0.93834,-22.3179
0.938496,-26.2884
0.938652,-30.0827
0.938808,-33.7383
0.938964,-37.2765
0.93912,-40.74
0.939276,-44.1181
0.939432,-47.3361
0.939588,-50.5595
0.939744,-53.6494
0.9399,-56.6592
0.940056,-59.5997
0.940212,-62.3268
0.940368,-64.915
0.940524,-67.482
0.94068,-69.9849
0.940836,-72.4024
0.940992,-74.6811
0.941148,-76.7678
0.941304,-78.7423
0.94146,-80.5141
0.941616,-81.9977
0.941772,-83.2838
0.941928,-84.2978
0.942084,-85.0022
0.94224,-85.3544
0.942396,-85.4665
0.942552,-85.3864
0.942708,-85.0662
0.942864,-84.5379
0.94302,-83.7694
0.943176,-82.7715
0.943332,-81.5334
0.943488,-79.9431
0.943644,-78.246
0.9438,-76.549
0.943956,-74.7932
0.944112,-72.9414
0.944268,-70.9828
0.944424,-68.9549
0.94458,-66.8042
0.944736,-64.5201
0.944892,-61.9959
0.945048,-59.3382
0.945204,-56.5899
0.94536,-53.6334
0.945516,-50.5221
0.945672,-47.2507
0.945828,-43.8726
0.945984,-40.3718
0.94614,-36.6468
0.946296,-32.7404
0.946452,-28.7059
0.946608,-24.5219
0.946764,-20.1939
0.94692,-15.8285
0.947076,-11.4685
0.947232,-7.1084
0.947388,-2.7751
0.947544,1.537
0.9477,5.817
0.947856,10.0009
0.948012,14.2329
0.948168,18.4115
0.948324,22.4993
0.94848,26.4431
0.948636,30.2108
0.948792,33.8077
0.948948,37.3192
0.949104,40.7453
0.94926,44.0754
0.949416,47.2614
0.949572,50.4741
0.949728,53.5213
0.949884,56.4938
0.95004,59.4023
0.950196,62.172
0.950352,64.7763
0.950508,67.3326
0.950664,69.8621
0.95082,72.285
0.950976,74.5691
0.951132,76.661
0.951288,78.6356
0.951444,80.3967
0.9516,81.8536
0.951756,83.1664
0.951912,84.1697
0.952068,84.8795
0.952224,85.253
0.95238,85.3651
0.952536,85.2744
0.952692,84.9435
0.952848,84.4152
0.953004,83.668
0.95316,82.7128
0.953316,81.5174
0.953472,79.9911
0.953628,78.3154
0.953784,76.661
0.95394,74.9213
0.954096,73.0748
0.954252,71.0735
0.954408,69.0349
0.954564,66.9056
0.95472,64.6109
0.954876,62.0172
0.955032,59.2956
0.955188,56.4991
0.955344,53.4946
0.9555,50.3513
0.955656,47.0586
0.955812,43.6965
0.955968,40.217
0.956124,36.5241
0.95628,32.6603
0.956436,28.6738
0.956592,24.5806
0.956748,20.338
0.956904,16.0633
0.95706,11.7673
0.957216,7.4713
0.957372,3.1967
0.957528,-1.0673
0.957684,-5.342
0.95784,-9.5313
0.957996,-13.7419
0.958152,-17.8991
0.958308,-22.0084
0.958464,-26.0215
0.95862,-29.8426
0.958776,-33.5088
0.958932,-37.0684
0.959088,-40.5479
0.959244,-43.9473
0.9594,-47.1707
0.959556,-50.394
0.959712,-53.5373
0.959868,-56.5312
0.960024,-59.4503
0.96018,-62.1667
0.960336,-64.7496
0.960492,-67.3059
0.960648,-69.8088
0.960804,-72.2209
0.96096,-74.505
0.961116,-76.5756
0.961272,-78.5342
0.961428,-80.2953
0.961584,-81.8002
0.96174,-83.129
0.961896,-84.175
0.962052,-84.9222
0.962208,-85.3117
0.962364,-85.4665
0.96252,-85.4078
0.962676,-85.1143
0.962832,-84.5646
0.962988,-83.8228
0.963144,-82.8515
0.9633,-81.6294
0.963456,-80.0498
0.963612,-78.3474
0.963768,-76.6664
0.963924,-74.9053
0.96408,-73.0428
0.964236,-71.0735
0.964392,-69.0456
0.964548,-66.9056
0.964704,-64.6429
0.96486,-62.1773
0.965016,-59.5197
0.965172,-56.7766
0.965328,-53.8255
0.965484,-50.7089
0.96564,-47.4642
0.965796,-44.1021
0.965952,-40.6333
0.966108,-36.9136
0.966264,-32.9859
0.96642,-28.9353
0.966576,-24.7514
0.966732,-20.434
0.966888,-16.0847
0.967044,-11.7246
0.9672,-7.3646
0.967356,-3.0312
0.967512,1.2755
0.967668,5.5555
0.967824,9.7394
0.96798,13.9607
0.968136,18.1019
0.968292,22.1631
0.968448,26.1016
0.968604,29.8906
0.96876,33.5088
0.968916,37.015
0.969072,40.4305
0.969228,43.7659
0.969384,46.9625
0.96954,50.1485
0.969696,53.2438
0.969852,56.2216
0.970008,59.1781
0.970164,61.9692
0.97032,64.5575
0.970476,67.1298
0.970632,69.6647
0.970788,72.1035
0.970944,74.4036
0.9711,76.5169
0.971256,78.5022
0.971412,80.2899
0.971568,81.7629
0.971724,83.0543
0.97188,84.0843
0.972036,84.8101
0.972192,85.205
0.972348,85.3277
0.972504,85.2584
0.97266,84.9488
0.972816,84.4419
0.972972,83.7001
0.973128,82.7501
0.973284,81.5654
0.97344,80.0605
0.973596,78.3901
0.973752,76.7517
0.973908,75.0387
0.974064,73.2029
0.97422,71.207
0.974376,69.1737
0.974532,67.0284
0.974688,64.7603
0.974844,62.2094
0.975,59.4877
0.975156,56.734
0.975312,53.7401
0.975468,50.6075
0.975624,47.3254
0.97578,43.9794
0.975936,40.5372
0.976092,36.8709
0.976248,33.0446
0.976404,29.0687
0.97656,24.9702
0.976716,20.6955
0.976872,16.4049
0.977028,12.1195
0.977184,7.8502
0.97734,3.5649
0.977496,-0.7204
0.977652,-5.0058
0.977808,-9.1897
0.977964,-13.4163
0.97812,-17.6056
0.978276,-21.7202
0.978432,-25.728
0.978588,-29.5544
0.978744,-33.226
0.9789,-36.8016
0.979056,-40.2864
0.979212,-43.6805
0.979368,-46.8985
0.979524,-50.1325
0.97968,-53.2705
0.979836,-56.2697
0.979992,-59.2102
0.980148,-61.9639
0.980304,-64.5468
0.98046,-67.1031
0.980616,-69.6006
0.980772,-72.0181
0.980928,-74.3236
0.981084,-76.4209
0.98124,-78.3901
0.981396,-80.1779
0.981552,-81.7255
0.981708,-83.049
0.981864,-84.1323
0.98202,-84.8901
0.982176,-85.3224
0.982332,-85.4878
0.982488,-85.4398
0.982644,-85.157
0.9828,-84.666
0.982956,-83.9455
0.983112,-82.985
0.983268,-81.7735
0.983424,-80.2099
0.98358,-78.5075
0.983736,-76.8211
0.983892,-75.0707
0.984048,-73.2242
0.984204,-71.255
0.98436,-69.2271
0.984516,-67.0817
0.984672,-64.8137
0.984828,-62.3695
0.984984,-59.7118
0.98514,-56.9901
0.985296,-54.071
0.985452,-50.9704
0.985608,-47.731
0.985764,-44.3956
0.98592,-40.9215
0.986076,-37.2392
0.986232,-33.3487
0.986388,-29.3356
0.986544,-25.1837
0.9867,-20.8717
0.986856,-16.5169
0.987012,-12.1516
0.987168,-7.8075
0.987324,-3.4848
0.98748,0.8165
0.987636,5.1232
0.987792,9.3178
0.987948,13.5551
0.988104,17.7337
0.98826,21.8269
0.988416,25.8081
0.988572,29.6131
0.988728,33.226
0.988884,36.7482
0.98904,40.2117
0.989196,43.5844
0.989352,46.7864
0.989508,49.9778
0.989664,53.073
0.98982,56.0615
0.989976,58.9914
0.990132,61.7718
0.990288,64.3654
0.990444,66.9323
0.9906,69.4565
0.990756,71.8954
0.990912,74.2062
0.991068,76.3355
0.991224,78.3367
0.99138,80.1138
0.991536,81.6134
0.991692,82.9423
0.991848,84.0203
0.992004,84.7834
0.99216,85.2103
0.992316,85.3758
0.992472,85.3384
0.992628,85.0556
0.992784,84.5593
0.99294,83.8442
0.993096,82.9049
0.993252,81.7468
0.993408,80.2633
0.993564,78.5769
0.99372,76.9225
0.993876,75.2094
0.994032,73.3843
0.994188,71.3937
0.994344,69.3498
0.9945,67.1991
0.994656,64.9364
0.994812,62.4175
0.994968,59.6958
0.995124,56.9421
0.99528,53.9856
0.995436,50.869
0.995592,47.6083
0.995748,44.2729
0.995904,40.8094
0.99606,37.1858
0.996216,33.3381
0.996372,29.3729
0.996528,25.2797
0.996684,21.0317
0.99684,16.7624
0.996996,12.4611
0.997152,8.1544
0.997308,3.8531
0.997464,-0.4056
0.99762,-4.6909
0.997776,-8.8855
0.997932,-13.1015
0.998088,-17.2641
0.998244,-21.3733